Time,Channel B
(ms),(V)

-5.00347978,-5.03067100
-5.00219978,-5.03067100
-5.00091978,-5.03067100
-4.99963978,-5.03067100
-4.99835978,-5.03067100
-4.99707978,-5.03067100
-4.99579978,-5.03067100
-4.99451978,-5.03067100
-4.99323978,-5.03067100
-4.99195978,-5.03067100
-4.99067978,-5.03067100
-4.98939978,-5.03067100
-4.98811978,-5.03067100
-4.98683978,-5.03067100
-4.98555978,-5.03067100
-4.98427978,-5.03067100
-4.98299978,-5.03067100
-4.98171978,-5.03067100
-4.98043978,-5.03067100
-4.97915978,-5.03067100
-4.97787978,-5.03067100
-4.97659978,-5.03067100
-4.97531978,-5.03067100
-4.97403978,-5.03067100
-4.97275978,-5.03067100
-4.97147978,-5.03067100
-4.97019978,-5.03067100
-4.96891978,-5.03067100
-4.96763978,-5.03067100
-4.96635978,-5.03067100
-4.96507978,-5.03067100
-4.96379978,-5.03067100
-4.96251978,-5.03067100
-4.96123978,-5.03067100
-4.95995978,-5.03067100
-4.95867978,-5.03067100
-4.95739978,-5.03067100
-4.95611978,-5.03067100
-4.95483978,-5.03067100
-4.95355978,-5.03067100
-4.95227978,-5.03067100
-4.95099978,-5.03067100
-4.94971978,-5.11887000
-4.94843978,-5.11887000
-4.94715978,-5.11887000
-4.94587978,-5.03067100
-4.94459978,-5.03067100
-4.94331978,-5.03067100
-4.94203978,-5.03067100
-4.94075978,-5.03067100
-4.93947978,-5.03067100
-4.93819978,-5.03067100
-4.93691978,-5.03067100
-4.93563978,-5.03067100
-4.93435978,-5.03067100
-4.93307978,-5.03067100
-4.93179978,-5.03067100
-4.93051978,-5.03067100
-4.92923978,-5.03067100
-4.92795978,-5.03067100
-4.92667978,-5.03067100
-4.92539978,-5.03067100
-4.92411978,-5.03067100
-4.92283978,-5.03067100
-4.92155978,-5.03067100
-4.92027978,-5.03067100
-4.91899978,-5.03067100
-4.91771978,-5.03067100
-4.91643978,-5.03067100
-4.91515978,-5.03067100
-4.91387978,-5.03067100
-4.91259978,-5.03067100
-4.91131978,-5.03067100
-4.91003978,-5.03067100
-4.90875978,-5.03067100
-4.90747978,-5.03067100
-4.90619978,-5.03067100
-4.90491978,-5.03067100
-4.90363978,-5.03067100
-4.90235978,-5.03067100
-4.90107978,-5.03067100
-4.89979978,-5.03067100
-4.89851978,-5.03067100
-4.89723978,-5.03067100
-4.89595978,-5.03067100
-4.89467978,-5.03067100
-4.89339978,-5.03067100
-4.89211978,-5.03067100
-4.89083978,-5.03067100
-4.88955978,-5.03067100
-4.88827978,-5.03067100
-4.88699978,-5.03067100
-4.88571978,-5.03067100
-4.88443978,-5.03067100
-4.88315978,-5.03067100
-4.88187978,-5.03067100
-4.88059978,-5.03067100
-4.87931978,-5.03067100
-4.87803978,-5.03067100
-4.87675978,-5.03067100
-4.87547978,-5.03067100
-4.87419978,-5.03067100
-4.87291978,-5.03067100
-4.87163978,-5.03067100
-4.87035978,-5.03067100
-4.86907978,-5.03067100
-4.86779978,-5.03067100
-4.86651978,-5.03067100
-4.86523978,-5.03067100
-4.86395978,-5.03067100
-4.86267978,-5.03067100
-4.86139978,-5.03067100
-4.86011978,-5.03067100
-4.85883978,-5.03067100
-4.85755978,-5.03067100
-4.85627978,-5.03067100
-4.85499978,-5.03067100
-4.85371978,-5.03067100
-4.85243978,-5.03067100
-4.85115978,-5.03067100
-4.84987978,-5.03067100
-4.84859978,-5.03067100
-4.84731978,-5.11887000
-4.84603978,-5.11887000
-4.84475978,-5.11887000
-4.84347978,-5.03067100
-4.84219978,-5.03067100
-4.84091978,-5.03067100
-4.83963978,-5.03067100
-4.83835978,-5.03067100
-4.83707978,-5.03067100
-4.83579978,-5.03067100
-4.83451978,-5.03067100
-4.83323978,-5.03067100
-4.83195978,-5.03067100
-4.83067978,-5.03067100
-4.82939978,-5.03067100
-4.82811978,-5.03067100
-4.82683978,-5.03067100
-4.82555978,-5.03067100
-4.82427978,-5.03067100
-4.82299978,-5.03067100
-4.82171978,-5.03067100
-4.82043978,-5.03067100
-4.81915978,-5.03067100
-4.81787978,-5.03067100
-4.81659978,-5.03067100
-4.81531978,-5.03067100
-4.81403978,-5.03067100
-4.81275978,-5.03067100
-4.81147978,-5.03067100
-4.81019978,-5.03067100
-4.80891978,-5.03067100
-4.80763978,-5.03067100
-4.80635978,-5.03067100
-4.80507978,-5.03067100
-4.80379978,-5.03067100
-4.80251978,-5.03067100
-4.80123978,-5.03067100
-4.79995978,-5.03067100
-4.79867978,-5.03067100
-4.79739978,-5.03067100
-4.79611978,-5.03067100
-4.79483978,-5.03067100
-4.79355978,-5.03067100
-4.79227978,-5.03067100
-4.79099978,-5.03067100
-4.78971978,-5.03067100
-4.78843978,-5.03067100
-4.78715978,-5.03067100
-4.78587978,-5.03067100
-4.78459978,-5.03067100
-4.78331978,-5.03067100
-4.78203978,-5.03067100
-4.78075978,-5.03067100
-4.77947978,-5.03067100
-4.77819978,-5.03067100
-4.77691978,-5.03067100
-4.77563978,-5.03067100
-4.77435978,-5.03067100
-4.77307978,-5.03067100
-4.77179978,-5.03067100
-4.77051978,-5.03067100
-4.76923978,-5.03067100
-4.76795978,-5.03067100
-4.76667978,-5.03067100
-4.76539978,-5.03067100
-4.76411978,-5.03067100
-4.76283978,-5.03067100
-4.76155978,-5.03067100
-4.76027978,-5.03067100
-4.75899978,-5.03067100
-4.75771978,-5.03067100
-4.75643978,-5.03067100
-4.75515978,-5.03067100
-4.75387978,-5.03067100
-4.75259978,-5.03067100
-4.75131978,-5.03067100
-4.75003978,-5.03067100
-4.74875978,-5.03067100
-4.74747978,-5.03067100
-4.74619978,-5.03067100
-4.74491978,-5.11887000
-4.74363978,-5.11887000
-4.74235978,-5.03067100
-4.74107978,-5.03067100
-4.73979978,-5.11887000
-4.73851978,-5.03067100
-4.73723978,-5.03067100
-4.73595978,-5.03067100
-4.73467978,-5.03067100
-4.73339978,-5.03067100
-4.73211978,-5.03067100
-4.73083978,-5.03067100
-4.72955978,-5.03067100
-4.72827978,-5.03067100
-4.72699978,-5.03067100
-4.72571978,-5.03067100
-4.72443978,-5.03067100
-4.72315978,-5.03067100
-4.72187978,-5.03067100
-4.72059978,-5.03067100
-4.71931978,-5.03067100
-4.71803978,-5.03067100
-4.71675978,-5.03067100
-4.71547978,-5.03067100
-4.71419978,-5.03067100
-4.71291978,-5.03067100
-4.71163978,-5.03067100
-4.71035978,-5.03067100
-4.70907978,-5.03067100
-4.70779978,-5.03067100
-4.70651978,-5.03067100
-4.70523978,-5.03067100
-4.70395978,-5.03067100
-4.70267978,-5.03067100
-4.70139978,-5.03067100
-4.70011978,-5.03067100
-4.69883978,-5.03067100
-4.69755978,-5.03067100
-4.69627978,-5.03067100
-4.69499978,-5.03067100
-4.69371978,-5.03067100
-4.69243978,-5.03067100
-4.69115978,-5.03067100
-4.68987978,-5.03067100
-4.68859978,-5.03067100
-4.68731978,-5.03067100
-4.68603978,-5.03067100
-4.68475978,-5.03067100
-4.68347978,-5.03067100
-4.68219978,-5.03067100
-4.68091978,-5.03067100
-4.67963978,-5.03067100
-4.67835978,-5.03067100
-4.67707978,-5.03067100
-4.67579978,-5.03067100
-4.67451978,-5.03067100
-4.67323978,-5.03067100
-4.67195978,-5.03067100
-4.67067978,-5.03067100
-4.66939978,-5.03067100
-4.66811978,-5.03067100
-4.66683978,-5.03067100
-4.66555978,-5.03067100
-4.66427978,-5.03067100
-4.66299978,-5.03067100
-4.66171978,-5.03067100
-4.66043978,-5.03067100
-4.65915978,-5.03067100
-4.65787978,-5.03067100
-4.65659978,-5.03067100
-4.65531978,-5.03067100
-4.65403978,-5.03067100
-4.65275978,-5.03067100
-4.65147978,-5.03067100
-4.65019978,-5.03067100
-4.64891978,-5.03067100
-4.64763978,-5.03067100
-4.64635978,-5.03067100
-4.64507978,-5.03067100
-4.64379978,-5.11887000
-4.64251978,-5.11887000
-4.64123978,-5.11887000
-4.63995978,-5.03067100
-4.63867978,-5.03067100
-4.63739978,-5.03067100
-4.63611978,-5.03067100
-4.63483978,-5.03067100
-4.63355978,-5.03067100
-4.63227978,-5.03067100
-4.63099978,-5.03067100
-4.62971978,-5.03067100
-4.62843978,-5.03067100
-4.62715978,-5.03067100
-4.62587978,-5.03067100
-4.62459978,-5.03067100
-4.62331978,-5.03067100
-4.62203978,-5.03067100
-4.62075978,-5.03067100
-4.61947978,-5.03067100
-4.61819978,-5.03067100
-4.61691978,-5.03067100
-4.61563978,-5.03067100
-4.61435978,-5.03067100
-4.61307978,-5.03067100
-4.61179978,-5.03067100
-4.61051978,-5.03067100
-4.60923978,-5.03067100
-4.60795978,-5.03067100
-4.60667978,-5.03067100
-4.60539978,-5.03067100
-4.60411978,-5.03067100
-4.60283978,-5.03067100
-4.60155978,-5.03067100
-4.60027978,-5.03067100
-4.59899978,-5.03067100
-4.59771978,-5.03067100
-4.59643978,-5.03067100
-4.59515978,-5.03067100
-4.59387978,-5.03067100
-4.59259978,-5.03067100
-4.59131978,-5.03067100
-4.59003978,-5.03067100
-4.58875978,-5.03067100
-4.58747978,-5.03067100
-4.58619978,-5.03067100
-4.58491978,-5.03067100
-4.58363978,-5.03067100
-4.58235978,-5.03067100
-4.58107978,-5.03067100
-4.57979978,-5.03067100
-4.57851978,-5.03067100
-4.57723978,-5.03067100
-4.57595978,-5.03067100
-4.57467978,-5.03067100
-4.57339978,-5.03067100
-4.57211978,-5.03067100
-4.57083978,-5.03067100
-4.56955978,-5.03067100
-4.56827978,-5.03067100
-4.56699978,-5.03067100
-4.56571978,-5.03067100
-4.56443978,-5.03067100
-4.56315978,-5.03067100
-4.56187978,-5.03067100
-4.56059978,-5.03067100
-4.55931978,-5.03067100
-4.55803978,-5.03067100
-4.55675978,-5.03067100
-4.55547978,-5.03067100
-4.55419978,-5.03067100
-4.55291978,-5.03067100
-4.55163978,-5.03067100
-4.55035978,-5.03067100
-4.54907978,-5.03067100
-4.54779978,-5.03067100
-4.54651978,-5.03067100
-4.54523978,-5.03067100
-4.54395978,-5.03067100
-4.54267978,-5.03067100
-4.54139978,-5.03067100
-4.54011978,-5.03067100
-4.53883978,-5.03067100
-4.53755978,-5.03067100
-4.53627978,-5.03067100
-4.53499978,-5.03067100
-4.53371978,-5.03067100
-4.53243978,-5.03067100
-4.53115978,-5.03067100
-4.52987978,-5.03067100
-4.52859978,-5.03067100
-4.52731978,-5.03067100
-4.52603978,-5.03067100
-4.52475978,-5.03067100
-4.52347978,-5.03067100
-4.52219978,-5.03067100
-4.52091978,-5.03067100
-4.51963978,-5.03067100
-4.51835978,-5.03067100
-4.51707978,-5.03067100
-4.51579978,-5.03067100
-4.51451978,-5.03067100
-4.51323978,-5.03067100
-4.51195978,-5.03067100
-4.51067978,-5.03067100
-4.50939978,-5.03067100
-4.50811978,-5.03067100
-4.50683978,-5.03067100
-4.50555978,-5.03067100
-4.50427978,-5.03067100
-4.50299978,-5.03067100
-4.50171978,-5.03067100
-4.50043978,-5.03067100
-4.49915978,-5.03067100
-4.49787978,-5.03067100
-4.49659978,-5.03067100
-4.49531978,-5.03067100
-4.49403978,-5.03067100
-4.49275978,-5.03067100
-4.49147978,-5.03067100
-4.49019978,-5.03067100
-4.48891978,-5.03067100
-4.48763978,-5.03067100
-4.48635978,-5.03067100
-4.48507978,-5.03067100
-4.48379978,-5.03067100
-4.48251978,-5.03067100
-4.48123978,-5.03067100
-4.47995978,-5.03067100
-4.47867978,-5.03067100
-4.47739978,-5.03067100
-4.47611978,-5.03067100
-4.47483978,-5.03067100
-4.47355978,-5.03067100
-4.47227978,-5.03067100
-4.47099978,-5.03067100
-4.46971978,-5.03067100
-4.46843978,-5.03067100
-4.46715978,-5.03067100
-4.46587978,-5.03067100
-4.46459978,-5.03067100
-4.46331978,-5.03067100
-4.46203978,-5.03067100
-4.46075978,-5.03067100
-4.45947978,-5.03067100
-4.45819978,-5.03067100
-4.45691978,-5.03067100
-4.45563978,-5.03067100
-4.45435978,-5.03067100
-4.45307978,-5.03067100
-4.45179978,-5.03067100
-4.45051978,-5.03067100
-4.44923978,-5.03067100
-4.44795978,-5.03067100
-4.44667978,-5.03067100
-4.44539978,-5.03067100
-4.44411978,-5.03067100
-4.44283978,-5.03067100
-4.44155978,-5.03067100
-4.44027978,-5.03067100
-4.43899978,-5.03067100
-4.43771978,-5.03067100
-4.43643978,-5.03067100
-4.43515978,-5.03067100
-4.43387978,-5.03067100
-4.43259978,-5.03067100
-4.43131978,-5.03067100
-4.43003978,-5.03067100
-4.42875978,-5.03067100
-4.42747978,-5.03067100
-4.42619978,-5.03067100
-4.42491978,-5.03067100
-4.42363978,-5.03067100
-4.42235978,-5.03067100
-4.42107978,-5.03067100
-4.41979978,-5.03067100
-4.41851978,-5.03067100
-4.41723978,-5.03067100
-4.41595978,-5.03067100
-4.41467978,-5.03067100
-4.41339978,-5.03067100
-4.41211978,-5.03067100
-4.41083978,-5.03067100
-4.40955978,-4.94216700
-4.40827978,-5.03067100
-4.40699978,-5.03067100
-4.40571978,-5.03067100
-4.40443978,-5.03067100
-4.40315978,-5.03067100
-4.40187978,-5.03067100
-4.40059978,-5.03067100
-4.39931978,-5.03067100
-4.39803978,-5.03067100
-4.39675978,-5.03067100
-4.39547978,-5.03067100
-4.39419978,-5.03067100
-4.39291978,-5.03067100
-4.39163978,-5.03067100
-4.39035978,-5.03067100
-4.38907978,-5.03067100
-4.38779978,-5.03067100
-4.38651978,-5.03067100
-4.38523978,-5.03067100
-4.38395978,-5.03067100
-4.38267978,-5.03067100
-4.38139978,-5.03067100
-4.38011978,-5.03067100
-4.37883978,-5.03067100
-4.37755978,-5.03067100
-4.37627978,-5.03067100
-4.37499978,-5.03067100
-4.37371978,-5.03067100
-4.37243978,-5.03067100
-4.37115978,-5.03067100
-4.36987978,-5.03067100
-4.36859978,-5.03067100
-4.36731978,-5.03067100
-4.36603978,-5.03067100
-4.36475978,-5.03067100
-4.36347978,-5.03067100
-4.36219978,-5.03067100
-4.36091978,-5.03067100
-4.35963978,-5.03067100
-4.35835978,-5.03067100
-4.35707978,-5.03067100
-4.35579978,-5.03067100
-4.35451978,-5.03067100
-4.35323978,-5.03067100
-4.35195978,-5.03067100
-4.35067978,-5.03067100
-4.34939978,-5.03067100
-4.34811978,-5.03067100
-4.34683978,-5.03067100
-4.34555978,-5.03067100
-4.34427978,-5.03067100
-4.34299978,-5.03067100
-4.34171978,-5.03067100
-4.34043978,-5.03067100
-4.33915978,-4.94216700
-4.33787978,-5.03067100
-4.33659978,-5.03067100
-4.33531978,-5.03067100
-4.33403978,-5.03067100
-4.33275978,-5.03067100
-4.33147978,-5.03067100
-4.33019978,-5.03067100
-4.32891978,-5.03067100
-4.32763978,-5.03067100
-4.32635978,-5.03067100
-4.32507978,-5.03067100
-4.32379978,-4.94216700
-4.32251978,-5.03067100
-4.32123978,-5.03067100
-4.31995978,-5.03067100
-4.31867978,-5.03067100
-4.31739978,-5.03067100
-4.31611978,-5.03067100
-4.31483978,-5.03067100
-4.31355978,-5.03067100
-4.31227978,-5.03067100
-4.31099978,-5.03067100
-4.30971978,-5.03067100
-4.30843978,-5.03067100
-4.30715978,-5.03067100
-4.30587978,-4.94216700
-4.30459978,-5.03067100
-4.30331978,-5.03067100
-4.30203978,-5.03067100
-4.30075978,-5.03067100
-4.29947978,-5.03067100
-4.29819978,-5.03067100
-4.29691978,-5.11887000
-4.29563978,-5.03067100
-4.29435978,-5.03067100
-4.29307978,-5.03067100
-4.29179978,-5.03067100
-4.29051978,-5.03067100
-4.28923978,-5.03067100
-4.28795978,-5.03067100
-4.28667978,-5.03067100
-4.28539978,-5.03067100
-4.28411978,-5.03067100
-4.28283978,-5.03067100
-4.28155978,-5.03067100
-4.28027978,-5.03067100
-4.27899978,-5.03067100
-4.27771978,-5.03067100
-4.27643978,-5.03067100
-4.27515978,-5.03067100
-4.27387978,-5.03067100
-4.27259978,-5.03067100
-4.27131978,-4.94216700
-4.27003978,-5.03067100
-4.26875978,-5.03067100
-4.26747978,-5.03067100
-4.26619978,-5.03067100
-4.26491978,-5.03067100
-4.26363978,-5.03067100
-4.26235978,-4.94216700
-4.26107978,-4.94216700
-4.25979978,-5.03067100
-4.25851978,-5.03067100
-4.25723978,-5.03067100
-4.25595978,-5.03067100
-4.25467978,-5.03067100
-4.25339978,-5.03067100
-4.25211978,-5.03067100
-4.25083978,-5.03067100
-4.24955978,-4.94216700
-4.24827978,-4.94216700
-4.24699978,-5.03067100
-4.24571978,-5.03067100
-4.24443978,-5.03067100
-4.24315978,-5.03067100
-4.24187978,-5.03067100
-4.24059978,-4.94216700
-4.23931978,-5.03067100
-4.23803978,-5.03067100
-4.23675978,-5.03067100
-4.23547978,-5.03067100
-4.23419978,-5.03067100
-4.23291978,-5.03067100
-4.23163978,-5.03067100
-4.23035978,-5.03067100
-4.22907978,-4.94216700
-4.22779978,-5.03067100
-4.22651978,-5.03067100
-4.22523978,-4.94216700
-4.22395978,-5.03067100
-4.22267978,-5.03067100
-4.22139978,-5.03067100
-4.22011978,-5.03067100
-4.21883978,-5.03067100
-4.21755978,-5.03067100
-4.21627978,-5.03067100
-4.21499978,-5.03067100
-4.21371978,-5.03067100
-4.21243978,-5.03067100
-4.21115978,-5.03067100
-4.20987978,-5.03067100
-4.20859978,-5.03067100
-4.20731978,-5.03067100
-4.20603978,-5.03067100
-4.20475978,-5.03067100
-4.20347978,-5.03067100
-4.20219978,-5.03067100
-4.20091978,-5.03067100
-4.19963978,-4.94216700
-4.19835978,-5.03067100
-4.19707978,-5.03067100
-4.19579978,-5.03067100
-4.19451978,-5.03067100
-4.19323978,-5.03067100
-4.19195978,-4.94216700
-4.19067978,-5.03067100
-4.18939978,-4.94216700
-4.18811978,-5.03067100
-4.18683978,-4.94216700
-4.18555978,-5.03067100
-4.18427978,-5.03067100
-4.18299978,-5.03067100
-4.18171978,-5.03067100
-4.18043978,-5.03067100
-4.17915978,-5.03067100
-4.17787978,-5.03067100
-4.17659978,-5.03067100
-4.17531978,-5.03067100
-4.17403978,-4.94216700
-4.17275978,-5.03067100
-4.17147978,-4.94216700
-4.17019978,-5.03067100
-4.16891978,-5.03067100
-4.16763978,-5.03067100
-4.16635978,-4.94216700
-4.16507978,-4.94216700
-4.16379978,-5.03067100
-4.16251978,-5.03067100
-4.16123978,-5.03067100
-4.15995978,-5.03067100
-4.15867978,-5.03067100
-4.15739978,-5.03067100
-4.15611978,-4.94216700
-4.15483978,-5.03067100
-4.15355978,-5.03067100
-4.15227978,-4.94216700
-4.15099978,-4.94216700
-4.14971978,-5.03067100
-4.14843978,-5.03067100
-4.14715978,-4.94216700
-4.14587978,-5.03067100
-4.14459978,-5.03067100
-4.14331978,-5.03067100
-4.14203978,-5.03067100
-4.14075978,-5.03067100
-4.13947978,-5.03067100
-4.13819978,-4.94216700
-4.13691978,-5.03067100
-4.13563978,-5.03067100
-4.13435978,-5.03067100
-4.13307978,-4.94216700
-4.13179978,-5.03067100
-4.13051978,-5.03067100
-4.12923978,-5.03067100
-4.12795978,-4.94216700
-4.12667978,-5.03067100
-4.12539978,-5.03067100
-4.12411978,-5.03067100
-4.12283978,-5.03067100
-4.12155978,-4.94216700
-4.12027978,-5.03067100
-4.11899978,-5.03067100
-4.11771978,-5.03067100
-4.11643978,-5.03067100
-4.11515978,-5.03067100
-4.11387978,-5.03067100
-4.11259978,-5.03067100
-4.11131978,-5.03067100
-4.11003978,-4.94216700
-4.10875978,-4.94216700
-4.10747978,-5.03067100
-4.10619978,-4.94216700
-4.10491978,-4.94216700
-4.10363978,-5.03067100
-4.10235978,-4.94216700
-4.10107978,-5.03067100
-4.09979978,-4.94216700
-4.09851978,-4.94216700
-4.09723978,-5.03067100
-4.09595978,-5.03067100
-4.09467978,-5.03067100
-4.09339978,-4.94216700
-4.09211978,-5.03067100
-4.09083978,-5.03067100
-4.08955978,-4.94216700
-4.08827978,-4.94216700
-4.08699978,-4.94216700
-4.08571978,-5.03067100
-4.08443978,-5.03067100
-4.08315978,-4.94216700
-4.08187978,-5.03067100
-4.08059978,-4.94216700
-4.07931978,-5.03067100
-4.07803978,-5.03067100
-4.07675978,-4.94216700
-4.07547978,-5.03067100
-4.07419978,-4.94216700
-4.07291978,-5.03067100
-4.07163978,-5.03067100
-4.07035978,-5.03067100
-4.06907978,-5.03067100
-4.06779978,-5.03067100
-4.06651978,-5.03067100
-4.06523978,-5.03067100
-4.06395978,-5.03067100
-4.06267978,-5.03067100
-4.06139978,-5.03067100
-4.06011978,-5.03067100
-4.05883978,-5.03067100
-4.05755978,-5.03067100
-4.05627978,-5.03067100
-4.05499978,-5.03067100
-4.05371978,-4.94216700
-4.05243978,-5.03067100
-4.05115978,-4.94216700
-4.04987978,-5.03067100
-4.04859978,-5.03067100
-4.04731978,-5.03067100
-4.04603978,-5.03067100
-4.04475978,-5.03067100
-4.04347978,-5.03067100
-4.04219978,-5.03067100
-4.04091978,-5.03067100
-4.03963978,-5.03067100
-4.03835978,-4.94216700
-4.03707978,-4.94216700
-4.03579978,-4.94216700
-4.03451978,-4.94216700
-4.03323978,-4.94216700
-4.03195978,-4.94216700
-4.03067978,-4.94216700
-4.02939978,-4.94216700
-4.02811978,-5.03067100
-4.02683978,-5.03067100
-4.02555978,-5.03067100
-4.02427978,-5.03067100
-4.02299978,-4.94216700
-4.02171978,-5.03067100
-4.02043978,-5.03067100
-4.01915978,-4.94216700
-4.01787978,-5.03067100
-4.01659978,-4.94216700
-4.01531978,-5.03067100
-4.01403978,-5.03067100
-4.01275978,-5.03067100
-4.01147978,-5.03067100
-4.01019978,-4.94216700
-4.00891978,-5.03067100
-4.00763978,-4.94216700
-4.00635978,-4.94216700
-4.00507978,-4.94216700
-4.00379978,-4.94216700
-4.00251978,-4.94216700
-4.00123978,-4.94216700
-3.99995978,-4.94216700
-3.99867978,-4.94216700
-3.99739978,-5.03067100
-3.99611978,-5.03067100
-3.99483978,-5.03067100
-3.99355978,-5.03067100
-3.99227978,-5.03067100
-3.99099978,-5.03067100
-3.98971978,-5.03067100
-3.98843978,-4.94216700
-3.98715978,-4.94216700
-3.98587978,-4.94216700
-3.98459978,-4.94216700
-3.98331978,-5.03067100
-3.98203978,-5.03067100
-3.98075978,-5.03067100
-3.97947978,-5.03067100
-3.97819978,-5.03067100
-3.97691978,-5.03067100
-3.97563978,-5.03067100
-3.97435978,-4.94216700
-3.97307978,-5.03067100
-3.97179978,-5.03067100
-3.97051978,-4.94216700
-3.96923978,-4.94216700
-3.96795978,-5.03067100
-3.96667978,-4.94216700
-3.96539978,-4.94216700
-3.96411978,-5.03067100
-3.96283978,-5.03067100
-3.96155978,-5.03067100
-3.96027978,-4.94216700
-3.95899978,-4.94216700
-3.95771978,-4.94216700
-3.95643978,-5.03067100
-3.95515978,-4.94216700
-3.95387978,-4.94216700
-3.95259978,-5.03067100
-3.95131978,-5.03067100
-3.95003978,-4.94216700
-3.94875978,-4.94216700
-3.94747978,-4.94216700
-3.94619978,-4.94216700
-3.94491978,-5.03067100
-3.94363978,-4.94216700
-3.94235978,-5.03067100
-3.94107978,-4.94216700
-3.93979978,-4.94216700
-3.93851978,-5.03067100
-3.93723978,-4.94216700
-3.93595978,-4.94216700
-3.93467978,-4.94216700
-3.93339978,-4.94216700
-3.93211978,-4.94216700
-3.93083978,-4.94216700
-3.92955978,-4.94216700
-3.92827978,-4.94216700
-3.92699978,-4.94216700
-3.92571978,-4.94216700
-3.92443978,-5.03067100
-3.92315978,-5.03067100
-3.92187978,-5.03067100
-3.92059978,-5.03067100
-3.91931978,-5.03067100
-3.91803978,-5.03067100
-3.91675978,-4.94216700
-3.91547978,-5.03067100
-3.91419978,-4.94216700
-3.91291978,-5.03067100
-3.91163978,-4.94216700
-3.91035978,-4.94216700
-3.90907978,-5.03067100
-3.90779978,-4.94216700
-3.90651978,-4.94216700
-3.90523978,-4.94216700
-3.90395978,-5.03067100
-3.90267978,-4.94216700
-3.90139978,-4.94216700
-3.90011978,-4.94216700
-3.89883978,-5.03067100
-3.89755978,-4.94216700
-3.89627978,-4.94216700
-3.89499978,-4.94216700
-3.89371978,-4.94216700
-3.89243978,-4.94216700
-3.89115978,-5.03067100
-3.88987978,-4.94216700
-3.88859978,-4.94216700
-3.88731978,-4.94216700
-3.88603978,-4.94216700
-3.88475978,-4.94216700
-3.88347978,-4.94216700
-3.88219978,-5.03067100
-3.88091978,-4.94216700
-3.87963978,-5.03067100
-3.87835978,-4.94216700
-3.87707978,-5.03067100
-3.87579978,-4.94216700
-3.87451978,-5.03067100
-3.87323978,-4.94216700
-3.87195978,-5.03067100
-3.87067978,-4.94216700
-3.86939978,-4.94216700
-3.86811978,-4.94216700
-3.86683978,-4.94216700
-3.86555978,-5.03067100
-3.86427978,-4.94216700
-3.86299978,-5.03067100
-3.86171978,-4.94216700
-3.86043978,-4.94216700
-3.85915978,-4.94216700
-3.85787978,-4.94216700
-3.85659978,-4.94216700
-3.85531978,-4.94216700
-3.85403978,-4.94216700
-3.85275978,-5.03067100
-3.85147978,-5.03067100
-3.85019978,-5.03067100
-3.84891978,-5.03067100
-3.84763978,-5.03067100
-3.84635978,-5.03067100
-3.84507978,-4.94216700
-3.84379978,-4.94216700
-3.84251978,-5.03067100
-3.84123978,-5.03067100
-3.83995978,-4.94216700
-3.83867978,-5.03067100
-3.83739978,-4.94216700
-3.83611978,-4.94216700
-3.83483978,-5.03067100
-3.83355978,-5.03067100
-3.83227978,-4.94216700
-3.83099978,-5.03067100
-3.82971978,-4.94216700
-3.82843978,-5.03067100
-3.82715978,-4.94216700
-3.82587978,-5.03067100
-3.82459978,-5.03067100
-3.82331978,-4.94216700
-3.82203978,-4.94216700
-3.82075978,-4.94216700
-3.81947978,-5.03067100
-3.81819978,-5.03067100
-3.81691978,-4.94216700
-3.81563978,-4.94216700
-3.81435978,-4.94216700
-3.81307978,-4.94216700
-3.81179978,-4.94216700
-3.81051978,-5.03067100
-3.80923978,-4.94216700
-3.80795978,-4.94216700
-3.80667978,-4.94216700
-3.80539978,-4.94216700
-3.80411978,-4.94216700
-3.80283978,-4.94216700
-3.80155978,-4.94216700
-3.80027978,-4.94216700
-3.79899978,-4.94216700
-3.79771978,-4.94216700
-3.79643978,-4.94216700
-3.79515978,-4.94216700
-3.79387978,-5.03067100
-3.79259978,-4.94216700
-3.79131978,-5.03067100
-3.79003978,-4.94216700
-3.78875978,-5.03067100
-3.78747978,-4.94216700
-3.78619978,-5.03067100
-3.78491978,-4.94216700
-3.78363978,-5.03067100
-3.78235978,-4.94216700
-3.78107978,-5.03067100
-3.77979978,-5.03067100
-3.77851978,-5.03067100
-3.77723978,-5.03067100
-3.77595978,-5.03067100
-3.77467978,-5.03067100
-3.77339978,-4.94216700
-3.77211978,-5.03067100
-3.77083978,-4.94216700
-3.76955978,-4.94216700
-3.76827978,-5.03067100
-3.76699978,-4.94216700
-3.76571978,-5.03067100
-3.76443978,-4.94216700
-3.76315978,-5.03067100
-3.76187978,-4.94216700
-3.76059978,-4.94216700
-3.75931978,-5.03067100
-3.75803978,-4.94216700
-3.75675978,-4.94216700
-3.75547978,-5.03067100
-3.75419978,-5.03067100
-3.75291978,-4.94216700
-3.75163978,-4.94216700
-3.75035978,-4.94216700
-3.74907978,-4.94216700
-3.74779978,-4.94216700
-3.74651978,-4.94216700
-3.74523978,-5.03067100
-3.74395978,-4.94216700
-3.74267978,-5.03067100
-3.74139978,-5.03067100
-3.74011978,-4.94216700
-3.73883978,-4.94216700
-3.73755978,-4.94216700
-3.73627978,-4.94216700
-3.73499978,-4.94216700
-3.73371978,-4.94216700
-3.73243978,-5.03067100
-3.73115978,-4.94216700
-3.72987978,-4.94216700
-3.72859978,-4.94216700
-3.72731978,-4.94216700
-3.72603978,-5.03067100
-3.72475978,-5.03067100
-3.72347978,-5.03067100
-3.72219978,-4.94216700
-3.72091978,-4.94216700
-3.71963978,-4.94216700
-3.71835978,-5.03067100
-3.71707978,-4.94216700
-3.71579978,-4.94216700
-3.71451978,-4.94216700
-3.71323978,-4.94216700
-3.71195978,-5.03067100
-3.71067978,-5.03067100
-3.70939978,-5.03067100
-3.70811978,-5.03067100
-3.70683978,-5.03067100
-3.70555978,-5.03067100
-3.70427978,-4.94216700
-3.70299978,-5.03067100
-3.70171978,-4.94216700
-3.70043978,-4.94216700
-3.69915978,-5.03067100
-3.69787978,-4.94216700
-3.69659978,-4.94216700
-3.69531978,-4.94216700
-3.69403978,-5.03067100
-3.69275978,-4.94216700
-3.69147978,-5.03067100
-3.69019978,-4.94216700
-3.68891978,-4.94216700
-3.68763978,-4.94216700
-3.68635978,-4.94216700
-3.68507978,-4.94216700
-3.68379978,-4.94216700
-3.68251978,-4.94216700
-3.68123978,-4.94216700
-3.67995978,-4.94216700
-3.67867978,-4.94216700
-3.67739978,-4.94216700
-3.67611978,-4.94216700
-3.67483978,-4.94216700
-3.67355978,-4.94216700
-3.67227978,-4.94216700
-3.67099978,-4.94216700
-3.66971978,-4.94216700
-3.66843978,-4.94216700
-3.66715978,-4.94216700
-3.66587978,-4.94216700
-3.66459978,-5.03067100
-3.66331978,-4.94216700
-3.66203978,-5.03067100
-3.66075978,-4.94216700
-3.65947978,-4.94216700
-3.65819978,-4.94216700
-3.65691978,-4.94216700
-3.65563978,-4.94216700
-3.65435978,-4.94216700
-3.65307978,-4.94216700
-3.65179978,-4.94216700
-3.65051978,-4.94216700
-3.64923978,-4.94216700
-3.64795978,-4.94216700
-3.64667978,-4.94216700
-3.64539978,-4.94216700
-3.64411978,-5.03067100
-3.64283978,-4.85396900
-3.64155978,-5.03067100
-3.64027978,-5.03067100
-3.63899978,-5.03067100
-3.63771978,-5.03067100
-3.63643978,-5.03067100
-3.63515978,-4.94216700
-3.63387978,-4.94216700
-3.63259978,-4.94216700
-3.63131978,-4.94216700
-3.63003978,-4.94216700
-3.62875978,-5.03067100
-3.62747978,-4.94216700
-3.62619978,-4.94216700
-3.62491978,-4.94216700
-3.62363978,-5.03067100
-3.62235978,-4.94216700
-3.62107978,-4.94216700
-3.61979978,-4.94216700
-3.61851978,-5.03067100
-3.61723978,-4.94216700
-3.61595978,-4.94216700
-3.61467978,-4.94216700
-3.61339978,-4.94216700
-3.61211978,-4.94216700
-3.61083978,-5.03067100
-3.60955978,-4.94216700
-3.60827978,-4.94216700
-3.60699978,-4.94216700
-3.60571978,-4.94216700
-3.60443978,-4.94216700
-3.60315978,-4.94216700
-3.60187978,-5.03067100
-3.60059978,-4.94216700
-3.59931978,-4.94216700
-3.59803978,-4.94216700
-3.59675978,-4.94216700
-3.59547978,-4.94216700
-3.59419978,-4.94216700
-3.59291978,-4.94216700
-3.59163978,-4.94216700
-3.59035978,-4.94216700
-3.58907978,-4.94216700
-3.58779978,-4.94216700
-3.58651978,-4.94216700
-3.58523978,-4.94216700
-3.58395978,-4.94216700
-3.58267978,-4.94216700
-3.58139978,-4.94216700
-3.58011978,-5.03067100
-3.57883978,-4.94216700
-3.57755978,-4.94216700
-3.57627978,-4.94216700
-3.57499978,-4.94216700
-3.57371978,-4.85396900
-3.57243978,-5.03067100
-3.57115978,-5.03067100
-3.56987978,-5.03067100
-3.56859978,-5.03067100
-3.56731978,-5.03067100
-3.56603978,-5.03067100
-3.56475978,-4.94216700
-3.56347978,-4.94216700
-3.56219978,-4.94216700
-3.56091978,-4.94216700
-3.55963978,-4.94216700
-3.55835978,-4.94216700
-3.55707978,-5.03067100
-3.55579978,-4.94216700
-3.55451978,-4.94216700
-3.55323978,-5.03067100
-3.55195978,-4.94216700
-3.55067978,-4.94216700
-3.54939978,-4.94216700
-3.54811978,-4.94216700
-3.54683978,-4.94216700
-3.54555978,-4.94216700
-3.54427978,-4.94216700
-3.54299978,-4.94216700
-3.54171978,-4.94216700
-3.54043978,-4.94216700
-3.53915978,-5.03067100
-3.53787978,-4.94216700
-3.53659978,-4.94216700
-3.53531978,-4.94216700
-3.53403978,-4.94216700
-3.53275978,-4.94216700
-3.53147978,-4.94216700
-3.53019978,-4.94216700
-3.52891978,-4.94216700
-3.52763978,-4.94216700
-3.52635978,-4.94216700
-3.52507978,-4.94216700
-3.52379978,-4.94216700
-3.52251978,-4.94216700
-3.52123978,-4.94216700
-3.51995978,-4.94216700
-3.51867978,-5.03067100
-3.51739978,-4.94216700
-3.51611978,-4.94216700
-3.51483978,-4.94216700
-3.51355978,-4.94216700
-3.51227978,-4.94216700
-3.51099978,-4.94216700
-3.50971978,-4.94216700
-3.50843978,-4.94216700
-3.50715978,-4.94216700
-3.50587978,-4.94216700
-3.50459978,-4.94216700
-3.50331978,-5.03067100
-3.50203978,-5.03067100
-3.50075978,-5.03067100
-3.49947978,-5.03067100
-3.49819978,-4.94216700
-3.49691978,-4.94216700
-3.49563978,-4.94216700
-3.49435978,-4.94216700
-3.49307978,-4.94216700
-3.49179978,-5.03067100
-3.49051978,-4.94216700
-3.48923978,-4.94216700
-3.48795978,-4.94216700
-3.48667978,-4.94216700
-3.48539978,-4.94216700
-3.48411978,-4.94216700
-3.48283978,-4.94216700
-3.48155978,-4.94216700
-3.48027978,-5.03067100
-3.47899978,-5.03067100
-3.47771978,-4.94216700
-3.47643978,-5.03067100
-3.47515978,-4.94216700
-3.47387978,-4.94216700
-3.47259978,-4.94216700
-3.47131978,-4.94216700
-3.47003978,-4.94216700
-3.46875978,-4.94216700
-3.46747978,-4.94216700
-3.46619978,-4.94216700
-3.46491978,-5.03067100
-3.46363978,-4.94216700
-3.46235978,-5.03067100
-3.46107978,-4.94216700
-3.45979978,-4.94216700
-3.45851978,-4.94216700
-3.45723978,-4.94216700
-3.45595978,-4.94216700
-3.45467978,-4.94216700
-3.45339978,-4.94216700
-3.45211978,-4.94216700
-3.45083978,-4.94216700
-3.44955978,-4.94216700
-3.44827978,-4.94216700
-3.44699978,-4.94216700
-3.44571978,-4.94216700
-3.44443978,-4.94216700
-3.44315978,-4.94216700
-3.44187978,-4.94216700
-3.44059978,-4.94216700
-3.43931978,-5.03067100
-3.43803978,-4.94216700
-3.43675978,-4.94216700
-3.43547978,-5.03067100
-3.43419978,-5.03067100
-3.43291978,-5.03067100
-3.43163978,-5.03067100
-3.43035978,-4.94216700
-3.42907978,-4.94216700
-3.42779978,-4.94216700
-3.42651978,-4.94216700
-3.42523978,-4.94216700
-3.42395978,-4.94216700
-3.42267978,-4.94216700
-3.42139978,-4.94216700
-3.42011978,-4.94216700
-3.41883978,-4.94216700
-3.41755978,-4.94216700
-3.41627978,-4.94216700
-3.41499978,-4.94216700
-3.41371978,-4.94216700
-3.41243978,-4.94216700
-3.41115978,-4.94216700
-3.40987978,-4.94216700
-3.40859978,-4.94216700
-3.40731978,-4.94216700
-3.40603978,-4.94216700
-3.40475978,-4.94216700
-3.40347978,-4.94216700
-3.40219978,-4.94216700
-3.40091978,-4.94216700
-3.39963978,-4.94216700
-3.39835978,-4.94216700
-3.39707978,-4.94216700
-3.39579978,-4.94216700
-3.39451978,-4.94216700
-3.39323978,-4.94216700
-3.39195978,-4.94216700
-3.39067978,-4.94216700
-3.38939978,-4.94216700
-3.38811978,-4.94216700
-3.38683978,-4.94216700
-3.38555978,-4.94216700
-3.38427978,-4.94216700
-3.38299978,-4.94216700
-3.38171978,-4.94216700
-3.38043978,-4.94216700
-3.37915978,-4.94216700
-3.37787978,-4.94216700
-3.37659978,-4.94216700
-3.37531978,-4.94216700
-3.37403978,-4.94216700
-3.37275978,-4.94216700
-3.37147978,-4.94216700
-3.37019978,-5.03067100
-3.36891978,-4.94216700
-3.36763978,-5.03067100
-3.36635978,-5.03067100
-3.36507978,-5.03067100
-3.36379979,-5.03067100
-3.36251979,-5.03067100
-3.36123979,-4.94216700
-3.35995979,-4.94216700
-3.35867979,-4.94216700
-3.35739979,-4.94216700
-3.35611979,-4.94216700
-3.35483979,-4.94216700
-3.35355979,-5.03067100
-3.35227979,-4.94216700
-3.35099979,-4.94216700
-3.34971979,-4.94216700
-3.34843979,-4.94216700
-3.34715979,-4.94216700
-3.34587979,-4.94216700
-3.34459979,-4.94216700
-3.34331979,-4.94216700
-3.34203979,-4.94216700
-3.34075979,-4.94216700
-3.33947979,-4.94216700
-3.33819979,-4.94216700
-3.33691979,-4.94216700
-3.33563979,-4.94216700
-3.33435979,-4.94216700
-3.33307979,-4.94216700
-3.33179979,-4.94216700
-3.33051979,-4.94216700
-3.32923979,-4.94216700
-3.32795979,-4.94216700
-3.32667979,-4.94216700
-3.32539979,-4.94216700
-3.32411979,-4.94216700
-3.32283979,-4.94216700
-3.32155979,-4.94216700
-3.32027979,-4.94216700
-3.31899979,-4.94216700
-3.31771979,-4.94216700
-3.31643979,-4.94216700
-3.31515979,-4.94216700
-3.31387979,-4.94216700
-3.31259979,-4.94216700
-3.31131979,-4.94216700
-3.31003979,-4.94216700
-3.30875979,-4.94216700
-3.30747979,-5.03067100
-3.30619979,-4.94216700
-3.30491979,-4.94216700
-3.30363979,-5.03067100
-3.30235979,-5.03067100
-3.30107979,-5.03067100
-3.29979979,-4.94216700
-3.29851979,-5.03067100
-3.29723979,-5.03067100
-3.29595979,-5.03067100
-3.29467979,-5.03067100
-3.29339979,-4.94216700
-3.29211979,-4.94216700
-3.29083979,-4.94216700
-3.28955979,-4.94216700
-3.28827979,-5.03067100
-3.28699979,-4.94216700
-3.28571979,-5.03067100
-3.28443979,-4.94216700
-3.28315979,-4.94216700
-3.28187979,-4.94216700
-3.28059979,-4.94216700
-3.27931979,-4.94216700
-3.27803979,-4.94216700
-3.27675979,-4.94216700
-3.27547979,-4.94216700
-3.27419979,-4.94216700
-3.27291979,-4.94216700
-3.27163979,-4.94216700
-3.27035979,-4.94216700
-3.26907979,-4.94216700
-3.26779979,-4.94216700
-3.26651979,-4.94216700
-3.26523979,-4.94216700
-3.26395979,-4.94216700
-3.26267979,-4.94216700
-3.26139979,-5.03067100
-3.26011979,-4.94216700
-3.25883979,-4.94216700
-3.25755979,-4.94216700
-3.25627979,-4.94216700
-3.25499979,-4.94216700
-3.25371979,-4.94216700
-3.25243979,-4.94216700
-3.25115979,-4.94216700
-3.24987979,-4.94216700
-3.24859979,-5.03067100
-3.24731979,-4.94216700
-3.24603979,-4.94216700
-3.24475979,-4.94216700
-3.24347979,-4.94216700
-3.24219979,-4.94216700
-3.24091979,-4.94216700
-3.23963979,-4.94216700
-3.23835979,-4.94216700
-3.23707979,-5.03067100
-3.23579979,-5.11887000
-3.23451979,-5.03067100
-3.23323979,-4.94216700
-3.23195979,-4.94216700
-3.23067979,-5.03067100
-3.22939979,-5.03067100
-3.22811979,-5.03067100
-3.22683979,-5.03067100
-3.22555979,-4.94216700
-3.22427979,-4.94216700
-3.22299979,-4.94216700
-3.22171979,-4.94216700
-3.22043979,-4.94216700
-3.21915979,-5.03067100
-3.21787979,-4.94216700
-3.21659979,-4.94216700
-3.21531979,-4.94216700
-3.21403979,-4.94216700
-3.21275979,-4.94216700
-3.21147979,-4.94216700
-3.21019979,-4.94216700
-3.20891979,-4.94216700
-3.20763979,-5.03067100
-3.20635979,-4.94216700
-3.20507979,-4.94216700
-3.20379979,-4.94216700
-3.20251979,-5.03067100
-3.20123979,-4.94216700
-3.19995979,-4.94216700
-3.19867979,-4.94216700
-3.19739979,-4.94216700
-3.19611979,-4.94216700
-3.19483979,-4.94216700
-3.19355979,-4.94216700
-3.19227979,-4.94216700
-3.19099979,-4.94216700
-3.18971979,-4.94216700
-3.18843979,-4.94216700
-3.18715979,-4.94216700
-3.18587979,-4.94216700
-3.18459979,-4.94216700
-3.18331979,-4.94216700
-3.18203979,-4.94216700
-3.18075979,-4.94216700
-3.17947979,-4.94216700
-3.17819979,-4.94216700
-3.17691979,-4.94216700
-3.17563979,-4.94216700
-3.17435979,-4.94216700
-3.17307979,-4.94216700
-3.17179979,-4.94216700
-3.17051979,-4.94216700
-3.16923979,-4.94216700
-3.16795979,-5.03067100
-3.16667979,-5.03067100
-3.16539979,-5.03067100
-3.16411979,-5.03067100
-3.16283979,-5.03067100
-3.16155979,-4.94216700
-3.16027979,-4.94216700
-3.15899979,-5.03067100
-3.15771979,-5.03067100
-3.15643979,-4.94216700
-3.15515979,-5.03067100
-3.15387979,-4.94216700
-3.15259979,-4.94216700
-3.15131979,-5.03067100
-3.15003979,-4.94216700
-3.14875979,-5.03067100
-3.14747979,-4.94216700
-3.14619979,-5.03067100
-3.14491979,-4.94216700
-3.14363979,-4.94216700
-3.14235979,-4.94216700
-3.14107979,-4.94216700
-3.13979979,-4.94216700
-3.13851979,-4.94216700
-3.13723979,-4.94216700
-3.13595979,-4.94216700
-3.13467979,-4.94216700
-3.13339979,-4.94216700
-3.13211979,-4.94216700
-3.13083979,-4.94216700
-3.12955979,-4.94216700
-3.12827979,-4.94216700
-3.12699979,-4.94216700
-3.12571979,-4.94216700
-3.12443979,-4.94216700
-3.12315979,-4.94216700
-3.12187979,-4.94216700
-3.12059979,-4.94216700
-3.11931979,-4.94216700
-3.11803979,-4.94216700
-3.11675979,-4.94216700
-3.11547979,-4.94216700
-3.11419979,-4.94216700
-3.11291979,-4.94216700
-3.11163979,-4.94216700
-3.11035979,-4.94216700
-3.10907979,-4.94216700
-3.10779979,-4.94216700
-3.10651979,-4.94216700
-3.10523979,-4.94216700
-3.10395979,-4.76577000
-3.10267979,-4.94216700
-3.10139979,-5.03067100
-3.10011979,-5.03067100
-3.09883979,-5.03067100
-3.09755979,-4.94216700
-3.09627979,-4.94216700
-3.09499979,-4.94216700
-3.09371979,-4.94216700
-3.09243979,-4.94216700
-3.09115979,-4.94216700
-3.08987979,-4.94216700
-3.08859979,-4.94216700
-3.08731979,-4.94216700
-3.08603979,-4.94216700
-3.08475979,-4.94216700
-3.08347979,-4.94216700
-3.08219979,-4.94216700
-3.08091979,-4.94216700
-3.07963979,-4.94216700
-3.07835979,-4.94216700
-3.07707979,-4.94216700
-3.07579979,-4.94216700
-3.07451979,-4.94216700
-3.07323979,-4.94216700
-3.07195979,-4.94216700
-3.07067979,-4.94216700
-3.06939979,-4.94216700
-3.06811979,-4.94216700
-3.06683979,-4.94216700
-3.06555979,-4.94216700
-3.06427979,-4.94216700
-3.06299979,-4.94216700
-3.06171979,-4.94216700
-3.06043979,-4.94216700
-3.05915979,-4.94216700
-3.05787979,-4.94216700
-3.05659979,-4.94216700
-3.05531979,-4.94216700
-3.05403979,-4.94216700
-3.05275979,-4.94216700
-3.05147979,-4.94216700
-3.05019979,-4.94216700
-3.04891979,-4.94216700
-3.04763979,-4.94216700
-3.04635979,-4.94216700
-3.04507979,-4.94216700
-3.04379979,-4.94216700
-3.04251979,-4.94216700
-3.04123979,-4.94216700
-3.03995979,-4.94216700
-3.03867979,-5.03067100
-3.03739979,-4.94216700
-3.03611979,-5.03067100
-3.03483979,-5.03067100
-3.03355979,-5.03067100
-3.03227979,-5.03067100
-3.03099979,-4.94216700
-3.02971979,-5.03067100
-3.02843979,-4.94216700
-3.02715979,-5.03067100
-3.02587979,-4.94216700
-3.02459979,-4.94216700
-3.02331979,-4.94216700
-3.02203979,-4.94216700
-3.02075979,-4.94216700
-3.01947979,-4.94216700
-3.01819979,-4.94216700
-3.01691979,-4.94216700
-3.01563979,-4.94216700
-3.01435979,-4.94216700
-3.01307979,-4.94216700
-3.01179979,-4.94216700
-3.01051979,-4.94216700
-3.00923979,-4.94216700
-3.00795979,-4.94216700
-3.00667979,-4.94216700
-3.00539979,-4.94216700
-3.00411979,-4.94216700
-3.00283979,-4.94216700
-3.00155979,-4.94216700
-3.00027979,-4.94216700
-2.99899979,-4.94216700
-2.99771979,-4.94216700
-2.99643979,-4.94216700
-2.99515979,-4.94216700
-2.99387979,-4.94216700
-2.99259979,-4.94216700
-2.99131979,-4.94216700
-2.99003979,-4.94216700
-2.98875979,-4.94216700
-2.98747979,-4.94216700
-2.98619979,-4.94216700
-2.98491979,-4.94216700
-2.98363979,-4.94216700
-2.98235979,-4.94216700
-2.98107979,-4.94216700
-2.97979979,-4.94216700
-2.97851979,-4.94216700
-2.97723979,-4.94216700
-2.97595979,-4.94216700
-2.97467979,-5.03067100
-2.97339979,-4.85396900
-2.97211979,-5.03067100
-2.97083979,-5.03067100
-2.96955979,-5.03067100
-2.96827979,-5.03067100
-2.96699979,-5.03067100
-2.96571979,-4.94216700
-2.96443979,-4.94216700
-2.96315979,-4.94216700
-2.96187979,-4.94216700
-2.96059979,-4.94216700
-2.95931979,-4.94216700
-2.95803979,-4.94216700
-2.95675979,-4.94216700
-2.95547979,-4.94216700
-2.95419979,-4.94216700
-2.95291979,-4.94216700
-2.95163979,-4.94216700
-2.95035979,-4.94216700
-2.94907979,-4.94216700
-2.94779979,-4.94216700
-2.94651979,-4.94216700
-2.94523979,-4.94216700
-2.94395979,-4.94216700
-2.94267979,-4.94216700
-2.94139979,-4.94216700
-2.94011979,-4.94216700
-2.93883979,-4.94216700
-2.93755979,-4.94216700
-2.93627979,-4.94216700
-2.93499979,-4.94216700
-2.93371979,-4.94216700
-2.93243979,-4.94216700
-2.93115979,-4.94216700
-2.92987979,-4.94216700
-2.92859979,-4.94216700
-2.92731979,-4.94216700
-2.92603979,-4.94216700
-2.92475979,-4.94216700
-2.92347979,-4.94216700
-2.92219979,-4.94216700
-2.92091979,-4.94216700
-2.91963979,-4.94216700
-2.91835979,-4.94216700
-2.91707979,-4.94216700
-2.91579979,-4.94216700
-2.91451979,-4.94216700
-2.91323979,-4.94216700
-2.91195979,-4.94216700
-2.91067979,-4.94216700
-2.90939979,-4.94216700
-2.90811979,-4.94216700
-2.90683979,-5.03067100
-2.90555979,-5.03067100
-2.90427979,-5.03067100
-2.90299979,-4.94216700
-2.90171979,-5.03067100
-2.90043979,-5.03067100
-2.89915979,-4.94216700
-2.89787979,-4.94216700
-2.89659979,-4.94216700
-2.89531979,-4.94216700
-2.89403979,-4.94216700
-2.89275979,-4.94216700
-2.89147979,-4.94216700
-2.89019979,-4.94216700
-2.88891979,-4.94216700
-2.88763979,-4.94216700
-2.88635979,-4.94216700
-2.88507979,-4.94216700
-2.88379979,-4.94216700
-2.88251979,-4.94216700
-2.88123979,-4.94216700
-2.87995979,-4.94216700
-2.87867979,-4.94216700
-2.87739979,-4.94216700
-2.87611979,-4.94216700
-2.87483979,-4.94216700
-2.87355979,-4.94216700
-2.87227979,-4.94216700
-2.87099979,-4.94216700
-2.86971979,-4.94216700
-2.86843979,-4.94216700
-2.86715979,-4.85396900
-2.86587979,-4.94216700
-2.86459979,-4.94216700
-2.86331979,-4.94216700
-2.86203979,-4.94216700
-2.86075979,-4.94216700
-2.85947979,-4.94216700
-2.85819979,-4.94216700
-2.85691979,-4.94216700
-2.85563979,-4.94216700
-2.85435979,-4.94216700
-2.85307979,-4.94216700
-2.85179979,-4.94216700
-2.85051979,-4.94216700
-2.84923979,-4.94216700
-2.84795979,-4.94216700
-2.84667979,-4.94216700
-2.84539979,-4.94216700
-2.84411979,-4.94216700
-2.84283979,-4.94216700
-2.84155979,-5.03067100
-2.84027979,-5.03067100
-2.83899979,-5.03067100
-2.83771979,-4.94216700
-2.83643979,-4.94216700
-2.83515979,-4.94216700
-2.83387979,-4.94216700
-2.83259979,-4.94216700
-2.83131979,-4.94216700
-2.83003979,-4.94216700
-2.82875979,-4.94216700
-2.82747979,-4.94216700
-2.82619979,-4.94216700
-2.82491979,-4.94216700
-2.82363979,-4.94216700
-2.82235979,-4.94216700
-2.82107979,-4.94216700
-2.81979979,-4.94216700
-2.81851979,-4.94216700
-2.81723979,-4.94216700
-2.81595979,-4.94216700
-2.81467979,-4.94216700
-2.81339979,-4.94216700
-2.81211979,-4.94216700
-2.81083979,-4.94216700
-2.80955979,-4.94216700
-2.80827979,-4.94216700
-2.80699979,-4.94216700
-2.80571979,-4.94216700
-2.80443979,-4.94216700
-2.80315979,-4.94216700
-2.80187979,-4.94216700
-2.80059979,-4.94216700
-2.79931979,-4.94216700
-2.79803979,-4.94216700
-2.79675979,-4.94216700
-2.79547979,-4.94216700
-2.79419979,-4.94216700
-2.79291979,-4.94216700
-2.79163979,-4.94216700
-2.79035979,-4.94216700
-2.78907979,-4.94216700
-2.78779979,-4.94216700
-2.78651979,-4.94216700
-2.78523979,-4.94216700
-2.78395979,-4.94216700
-2.78267979,-4.94216700
-2.78139979,-4.94216700
-2.78011979,-4.94216700
-2.77883979,-4.94216700
-2.77755979,-5.03067100
-2.77627979,-5.03067100
-2.77499979,-4.94216700
-2.77371979,-5.03067100
-2.77243979,-4.94216700
-2.77115979,-4.94216700
-2.76987979,-4.94216700
-2.76859979,-4.94216700
-2.76731979,-4.94216700
-2.76603979,-4.94216700
-2.76475979,-4.94216700
-2.76347979,-4.94216700
-2.76219979,-4.94216700
-2.76091979,-4.94216700
-2.75963979,-4.94216700
-2.75835979,-4.94216700
-2.75707979,-4.94216700
-2.75579979,-4.94216700
-2.75451979,-4.94216700
-2.75323979,-4.94216700
-2.75195979,-4.94216700
-2.75067979,-4.94216700
-2.74939979,-4.94216700
-2.74811979,-4.94216700
-2.74683979,-4.94216700
-2.74555979,-4.94216700
-2.74427979,-4.94216700
-2.74299979,-4.94216700
-2.74171979,-4.94216700
-2.74043979,-4.94216700
-2.73915979,-4.94216700
-2.73787979,-4.94216700
-2.73659979,-4.94216700
-2.73531979,-4.94216700
-2.73403979,-4.94216700
-2.73275979,-4.94216700
-2.73147979,-4.94216700
-2.73019979,-4.94216700
-2.72891979,-4.94216700
-2.72763979,-4.94216700
-2.72635979,-4.94216700
-2.72507979,-4.94216700
-2.72379979,-4.94216700
-2.72251979,-4.94216700
-2.72123979,-4.94216700
-2.71995979,-4.94216700
-2.71867979,-4.94216700
-2.71739979,-4.94216700
-2.71611979,-4.94216700
-2.71483979,-4.94216700
-2.71355979,-5.03067100
-2.71227979,-5.03067100
-2.71099979,-5.03067100
-2.70971979,-4.94216700
-2.70843979,-4.94216700
-2.70715979,-4.94216700
-2.70587979,-4.94216700
-2.70459979,-4.94216700
-2.70331979,-4.94216700
-2.70203979,-4.94216700
-2.70075979,-4.94216700
-2.69947979,-4.94216700
-2.69819979,-4.94216700
-2.69691979,-4.94216700
-2.69563979,-4.94216700
-2.69435979,-4.94216700
-2.69307979,-4.94216700
-2.69179979,-4.94216700
-2.69051979,-4.94216700
-2.68923979,-4.94216700
-2.68795979,-4.94216700
-2.68667979,-4.85396900
-2.68539979,-4.94216700
-2.68411979,-4.94216700
-2.68283979,-4.94216700
-2.68155979,-4.94216700
-2.68027979,-4.94216700
-2.67899979,-4.94216700
-2.67771979,-4.94216700
-2.67643979,-4.94216700
-2.67515979,-4.94216700
-2.67387979,-4.94216700
-2.67259979,-4.94216700
-2.67131979,-4.94216700
-2.67003979,-4.94216700
-2.66875979,-4.94216700
-2.66747979,-4.94216700
-2.66619979,-4.94216700
-2.66491979,-4.94216700
-2.66363979,-4.94216700
-2.66235979,-4.94216700
-2.66107979,-4.94216700
-2.65979979,-4.94216700
-2.65851979,-4.94216700
-2.65723979,-4.94216700
-2.65595979,-4.94216700
-2.65467979,-4.94216700
-2.65339979,-4.94216700
-2.65211979,-4.94216700
-2.65083979,-4.94216700
-2.64955979,-5.03067100
-2.64827979,-5.03067100
-2.64699979,-4.94216700
-2.64571979,-4.94216700
-2.64443979,-4.94216700
-2.64315979,-4.94216700
-2.64187979,-4.94216700
-2.64059979,-4.94216700
-2.63931979,-4.94216700
-2.63803979,-4.94216700
-2.63675979,-4.94216700
-2.63547979,-4.94216700
-2.63419979,-4.94216700
-2.63291979,-4.94216700
-2.63163979,-4.94216700
-2.63035979,-4.94216700
-2.62907979,-4.94216700
-2.62779979,-4.94216700
-2.62651979,-4.94216700
-2.62523979,-4.94216700
-2.62395979,-4.94216700
-2.62267979,-4.94216700
-2.62139979,-4.85396900
-2.62011979,-4.94216700
-2.61883979,-4.94216700
-2.61755979,-4.94216700
-2.61627979,-4.94216700
-2.61499979,-4.94216700
-2.61371979,-4.94216700
-2.61243979,-4.94216700
-2.61115979,-4.94216700
-2.60987979,-4.94216700
-2.60859979,-4.94216700
-2.60731979,-4.94216700
-2.60603979,-4.94216700
-2.60475979,-4.94216700
-2.60347979,-4.94216700
-2.60219979,-4.94216700
-2.60091979,-4.94216700
-2.59963979,-4.94216700
-2.59835979,-4.94216700
-2.59707979,-4.94216700
-2.59579979,-4.94216700
-2.59451979,-4.94216700
-2.59323979,-4.94216700
-2.59195979,-4.94216700
-2.59067979,-4.94216700
-2.58939979,-4.94216700
-2.58811979,-4.94216700
-2.58683979,-4.94216700
-2.58555979,-5.03067100
-2.58427979,-5.03067100
-2.58299979,-4.94216700
-2.58171979,-5.03067100
-2.58043979,-4.94216700
-2.57915979,-4.94216700
-2.57787979,-4.94216700
-2.57659979,-4.94216700
-2.57531979,-4.94216700
-2.57403979,-4.94216700
-2.57275979,-4.94216700
-2.57147979,-4.94216700
-2.57019979,-4.94216700
-2.56891979,-4.94216700
-2.56763979,-4.94216700
-2.56635979,-4.94216700
-2.56507979,-4.94216700
-2.56379979,-4.94216700
-2.56251979,-4.94216700
-2.56123979,-4.94216700
-2.55995979,-4.94216700
-2.55867979,-4.94216700
-2.55739979,-4.94216700
-2.55611979,-4.94216700
-2.55483979,-4.94216700
-2.55355979,-4.94216700
-2.55227979,-4.94216700
-2.55099979,-4.94216700
-2.54971979,-4.94216700
-2.54843979,-4.94216700
-2.54715979,-4.94216700
-2.54587979,-4.85396900
-2.54459979,-4.94216700
-2.54331979,-4.94216700
-2.54203979,-4.94216700
-2.54075979,-4.94216700
-2.53947979,-4.94216700
-2.53819979,-4.94216700
-2.53691979,-4.94216700
-2.53563979,-4.94216700
-2.53435979,-4.94216700
-2.53307979,-4.94216700
-2.53179979,-4.94216700
-2.53051979,-4.94216700
-2.52923979,-4.94216700
-2.52795979,-4.94216700
-2.52667979,-4.94216700
-2.52539979,-4.76577000
-2.52411979,-4.94216700
-2.52283979,-5.03067100
-2.52155979,-5.03067100
-2.52027979,-5.03067100
-2.51899979,-4.94216700
-2.51771979,-4.94216700
-2.51643979,-4.94216700
-2.51515979,-4.94216700
-2.51387979,-4.94216700
-2.51259979,-4.94216700
-2.51131979,-4.94216700
-2.51003979,-4.94216700
-2.50875979,-4.94216700
-2.50747979,-4.94216700
-2.50619979,-4.94216700
-2.50491979,-4.94216700
-2.50363979,-4.94216700
-2.50235979,-4.94216700
-2.50107979,-4.94216700
-2.49979979,-4.94216700
-2.49851979,-4.94216700
-2.49723979,-4.94216700
-2.49595979,-4.94216700
-2.49467979,-4.94216700
-2.49339979,-4.94216700
-2.49211979,-4.94216700
-2.49083979,-4.94216700
-2.48955979,-4.94216700
-2.48827979,-4.94216700
-2.48699979,-4.94216700
-2.48571979,-4.94216700
-2.48443979,-4.94216700
-2.48315979,-4.94216700
-2.48187979,-4.94216700
-2.48059979,-4.94216700
-2.47931979,-4.94216700
-2.47803979,-4.94216700
-2.47675979,-4.94216700
-2.47547979,-4.94216700
-2.47419979,-4.94216700
-2.47291979,-4.94216700
-2.47163979,-4.94216700
-2.47035979,-4.94216700
-2.46907979,-4.94216700
-2.46779979,-4.94216700
-2.46651979,-4.94216700
-2.46523979,-4.94216700
-2.46395979,-4.94216700
-2.46267979,-5.03067100
-2.46139979,-4.94216700
-2.46011979,-5.03067100
-2.45883979,-5.03067100
-2.45755979,-5.03067100
-2.45627979,-5.03067100
-2.45499979,-4.94216700
-2.45371979,-4.94216700
-2.45243979,-4.94216700
-2.45115979,-4.94216700
-2.44987979,-4.94216700
-2.44859979,-4.94216700
-2.44731979,-4.94216700
-2.44603979,-4.94216700
-2.44475979,-4.94216700
-2.44347979,-4.94216700
-2.44219979,-4.94216700
-2.44091979,-4.94216700
-2.43963979,-4.94216700
-2.43835979,-4.94216700
-2.43707979,-4.94216700
-2.43579979,-4.94216700
-2.43451979,-4.94216700
-2.43323979,-4.94216700
-2.43195979,-4.94216700
-2.43067979,-4.94216700
-2.42939979,-4.94216700
-2.42811979,-4.94216700
-2.42683979,-4.94216700
-2.42555979,-4.94216700
-2.42427979,-4.94216700
-2.42299979,-4.94216700
-2.42171979,-4.94216700
-2.42043979,-4.94216700
-2.41915979,-4.94216700
-2.41787979,-4.94216700
-2.41659979,-4.94216700
-2.41531979,-4.94216700
-2.41403979,-4.94216700
-2.41275979,-4.94216700
-2.41147979,-4.94216700
-2.41019979,-4.94216700
-2.40891979,-4.94216700
-2.40763979,-4.94216700
-2.40635979,-4.94216700
-2.40507979,-4.94216700
-2.40379979,-4.94216700
-2.40251979,-4.94216700
-2.40123979,-4.94216700
-2.39995979,-4.94216700
-2.39867979,-4.94216700
-2.39739979,-5.03067100
-2.39611979,-5.03067100
-2.39483979,-5.03067100
-2.39355979,-4.94216700
-2.39227979,-4.94216700
-2.39099979,-4.94216700
-2.38971979,-4.94216700
-2.38843979,-4.94216700
-2.38715979,-4.94216700
-2.38587979,-4.94216700
-2.38459979,-4.94216700
-2.38331979,-4.94216700
-2.38203979,-4.94216700
-2.38075979,-4.94216700
-2.37947979,-4.94216700
-2.37819979,-4.94216700
-2.37691979,-4.94216700
-2.37563979,-4.94216700
-2.37435979,-4.94216700
-2.37307979,-4.94216700
-2.37179979,-4.94216700
-2.37051979,-4.94216700
-2.36923979,-4.94216700
-2.36795979,-4.94216700
-2.36667979,-4.94216700
-2.36539979,-4.94216700
-2.36411979,-4.94216700
-2.36283979,-4.94216700
-2.36155979,-4.94216700
-2.36027979,-4.94216700
-2.35899979,-4.94216700
-2.35771979,-4.94216700
-2.35643979,-4.94216700
-2.35515979,-4.94216700
-2.35387979,-4.94216700
-2.35259979,-4.94216700
-2.35131979,-4.85396900
-2.35003979,-4.94216700
-2.34875979,-4.94216700
-2.34747979,-4.94216700
-2.34619979,-4.94216700
-2.34491979,-4.94216700
-2.34363979,-4.94216700
-2.34235979,-4.94216700
-2.34107979,-4.94216700
-2.33979979,-4.94216700
-2.33851979,-4.94216700
-2.33723979,-4.94216700
-2.33595979,-4.94216700
-2.33467979,-5.03067100
-2.33339979,-5.03067100
-2.33211979,-4.94216700
-2.33083979,-4.94216700
-2.32955979,-4.94216700
-2.32827979,-4.94216700
-2.32699979,-4.94216700
-2.32571979,-4.94216700
-2.32443979,-4.94216700
-2.32315979,-4.94216700
-2.32187979,-4.94216700
-2.32059979,-4.94216700
-2.31931979,-4.94216700
-2.31803979,-4.94216700
-2.31675979,-4.94216700
-2.31547979,-4.94216700
-2.31419979,-4.94216700
-2.31291979,-4.94216700
-2.31163979,-4.94216700
-2.31035979,-4.94216700
-2.30907979,-4.94216700
-2.30779979,-4.94216700
-2.30651979,-4.94216700
-2.30523979,-4.94216700
-2.30395979,-4.94216700
-2.30267979,-4.94216700
-2.30139979,-4.94216700
-2.30011979,-4.94216700
-2.29883979,-4.94216700
-2.29755979,-4.85396900
-2.29627979,-4.85396900
-2.29499979,-4.94216700
-2.29371979,-4.94216700
-2.29243979,-4.94216700
-2.29115979,-4.94216700
-2.28987979,-4.94216700
-2.28859979,-4.94216700
-2.28731979,-4.94216700
-2.28603979,-4.94216700
-2.28475979,-4.94216700
-2.28347979,-4.85396900
-2.28219979,-4.94216700
-2.28091979,-4.94216700
-2.27963979,-4.94216700
-2.27835979,-4.94216700
-2.27707979,-4.94216700
-2.27579979,-4.94216700
-2.27451979,-5.03067100
-2.27323979,-5.03067100
-2.27195979,-4.94216700
-2.27067979,-4.94216700
-2.26939979,-5.03067100
-2.26811979,-5.03067100
-2.26683979,-5.03067100
-2.26555979,-5.03067100
-2.26427979,-5.03067100
-2.26299979,-5.03067100
-2.26171979,-4.94216700
-2.26043979,-4.94216700
-2.25915979,-5.03067100
-2.25787979,-5.03067100
-2.25659979,-5.03067100
-2.25531979,-5.03067100
-2.25403979,-5.03067100
-2.25275979,-4.94216700
-2.25147979,-4.94216700
-2.25019979,-5.03067100
-2.24891979,-5.03067100
-2.24763979,-5.03067100
-2.24635979,-5.03067100
-2.24507979,-5.03067100
-2.24379979,-5.03067100
-2.24251979,-5.03067100
-2.24123979,-5.03067100
-2.23995979,-5.03067100
-2.23867979,-5.03067100
-2.23739979,-5.03067100
-2.23611979,-5.03067100
-2.23483979,-5.03067100
-2.23355979,-5.03067100
-2.23227979,-5.03067100
-2.23099979,-5.03067100
-2.22971979,-5.03067100
-2.22843979,-5.03067100
-2.22715979,-5.03067100
-2.22587979,-5.03067100
-2.22459979,-5.03067100
-2.22331979,-5.03067100
-2.22203979,-5.03067100
-2.22075979,-5.03067100
-2.21947979,-5.03067100
-2.21819979,-5.03067100
-2.21691979,-5.03067100
-2.21563979,-5.03067100
-2.21435979,-5.03067100
-2.21307979,-5.03067100
-2.21179979,-5.03067100
-2.21051979,-5.03067100
-2.20923979,-5.03067100
-2.20795979,-5.03067100
-2.20667979,-5.03067100
-2.20539979,-5.03067100
-2.20411979,-5.03067100
-2.20283979,-5.03067100
-2.20155979,-5.03067100
-2.20027979,-5.03067100
-2.19899979,-5.03067100
-2.19771979,-5.03067100
-2.19643979,-5.03067100
-2.19515979,-5.03067100
-2.19387979,-5.03067100
-2.19259979,-5.03067100
-2.19131979,-5.03067100
-2.19003979,-5.03067100
-2.18875979,-5.11887000
-2.18747979,-5.11887000
-2.18619979,-5.11887000
-2.18491979,-5.11887000
-2.18363979,-5.03067100
-2.18235979,-5.11887000
-2.18107979,-5.03067100
-2.17979979,-5.11887000
-2.17851979,-5.03067100
-2.17723979,-5.03067100
-2.17595979,-5.11887000
-2.17467979,-5.11887000
-2.17339979,-5.11887000
-2.17211979,-5.11887000
-2.17083979,-5.11887000
-2.16955979,-5.11887000
-2.16827979,-5.11887000
-2.16699979,-5.11887000
-2.16571979,-5.11887000
-2.16443979,-5.11887000
-2.16315979,-5.11887000
-2.16187979,-5.11887000
-2.16059979,-5.11887000
-2.15931979,-5.11887000
-2.15803979,-5.11887000
-2.15675979,-5.11887000
-2.15547979,-5.11887000
-2.15419979,-5.20706800
-2.15291979,-5.20706800
-2.15163979,-5.11887000
-2.15035979,-5.20706800
-2.14907979,-5.20706800
-2.14779979,-5.20706800
-2.14651979,-5.20706800
-2.14523979,-5.20706800
-2.14395979,-5.20706800
-2.14267979,-5.11887000
-2.14139979,-5.11887000
-2.14011979,-5.20706800
-2.13883979,-5.20706800
-2.13755979,-5.20706800
-2.13627979,-5.20706800
-2.13499979,-5.20706800
-2.13371979,-5.20706800
-2.13243979,-5.20706800
-2.13115979,-5.20706800
-2.12987979,-5.20706800
-2.12859979,-5.20706800
-2.12731979,-5.20706800
-2.12603979,-5.20706800
-2.12475979,-5.20706800
-2.12347979,-5.20706800
-2.12219979,-5.20706800
-2.12091979,-5.20706800
-2.11963979,-5.20706800
-2.11835979,-5.20706800
-2.11707979,-5.29526700
-2.11579979,-5.29526700
-2.11451979,-5.29526700
-2.11323979,-5.29526700
-2.11195979,-5.29526700
-2.11067979,-5.29526700
-2.10939979,-5.29526700
-2.10811979,-5.29526700
-2.10683979,-5.29526700
-2.10555979,-5.29526700
-2.10427979,-5.29526700
-2.10299979,-5.29526700
-2.10171979,-5.29526700
-2.10043979,-5.29526700
-2.09915979,-5.29526700
-2.09787979,-5.29526700
-2.09659979,-5.29526700
-2.09531979,-5.29526700
-2.09403979,-5.29526700
-2.09275979,-5.29526700
-2.09147979,-5.29526700
-2.09019979,-5.29526700
-2.08891979,-5.38346500
-2.08763979,-5.29526700
-2.08635979,-5.29526700
-2.08507979,-5.29526700
-2.08379979,-5.29526700
-2.08251979,-5.29526700
-2.08123979,-5.29526700
-2.07995979,-5.29526700
-2.07867979,-5.29526700
-2.07739979,-5.29526700
-2.07611979,-5.29526700
-2.07483979,-5.29526700
-2.07355979,-5.38346500
-2.07227979,-5.29526700
-2.07099979,-5.29526700
-2.06971979,-5.29526700
-2.06843979,-5.29526700
-2.06715979,-5.38346500
-2.06587979,-5.38346500
-2.06459979,-5.38346500
-2.06331979,-5.38346500
-2.06203979,-5.29526700
-2.06075979,-5.38346500
-2.05947979,-5.38346500
-2.05819979,-5.38346500
-2.05691979,-5.38346500
-2.05563979,-5.38346500
-2.05435979,-5.38346500
-2.05307979,-5.38346500
-2.05179979,-5.38346500
-2.05051979,-5.38346500
-2.04923979,-5.38346500
-2.04795979,-5.38346500
-2.04667979,-5.38346500
-2.04539979,-5.38346500
-2.04411979,-5.38346500
-2.04283979,-5.38346500
-2.04155979,-5.38346500
-2.04027979,-5.38346500
-2.03899979,-5.38346500
-2.03771979,-5.38346500
-2.03643979,-5.38346500
-2.03515979,-5.38346500
-2.03387979,-5.38346500
-2.03259979,-5.38346500
-2.03131979,-5.38346500
-2.03003979,-5.38346500
-2.02875979,-5.38346500
-2.02747979,-5.55986200
-2.02619979,-5.47166300
-2.02491979,-5.38346500
-2.02363979,-5.38346500
-2.02235979,-5.38346500
-2.02107979,-5.38346500
-2.01979979,-5.38346500
-2.01851979,-5.38346500
-2.01723979,-5.47166300
-2.01595979,-5.38346500
-2.01467979,-5.38346500
-2.01339979,-5.47166300
-2.01211979,-5.47166300
-2.01083979,-5.47166300
-2.00955979,-5.47166300
-2.00827979,-5.47166300
-2.00699979,-5.47166300
-2.00571979,-5.47166300
-2.00443979,-5.38346500
-2.00315979,-5.47166300
-2.00187979,-5.47166300
-2.00059979,-5.47166300
-1.99931979,-5.38346500
-1.99803979,-5.47166300
-1.99675979,-5.38346500
-1.99547979,-5.47166300
-1.99419979,-5.47166300
-1.99291979,-5.47166300
-1.99163979,-5.47166300
-1.99035979,-5.47166300
-1.98907979,-5.47166300
-1.98779979,-5.47166300
-1.98651979,-5.47166300
-1.98523979,-5.47166300
-1.98395979,-5.47166300
-1.98267979,-5.47166300
-1.98139979,-5.55986200
-1.98011979,-5.47166300
-1.97883979,-5.55986200
-1.97755979,-5.55986200
-1.97627979,-5.55986200
-1.97499979,-5.55986200
-1.97371979,-5.55986200
-1.97243979,-5.55986200
-1.97115979,-5.55986200
-1.96987979,-5.55986200
-1.96859979,-5.55986200
-1.96731979,-5.55986200
-1.96603979,-5.64806000
-1.96475979,-5.55986200
-1.96347979,-5.55986200
-1.96219979,-5.55986200
-1.96091979,-5.47166300
-1.95963979,-5.55986200
-1.95835979,-5.55986200
-1.95707979,-5.55986200
-1.95579979,-5.55986200
-1.95451979,-5.64806000
-1.95323979,-5.55986200
-1.95195979,-5.64806000
-1.95067979,-5.55986200
-1.94939979,-5.64806000
-1.94811979,-5.64806000
-1.94683979,-5.64806000
-1.94555979,-5.55986200
-1.94427979,-5.55986200
-1.94299979,-5.64806000
-1.94171979,-5.64806000
-1.94043979,-5.64806000
-1.93915979,-5.55986200
-1.93787979,-5.64806000
-1.93659979,-5.64806000
-1.93531979,-5.64806000
-1.93403979,-5.64806000
-1.93275979,-5.64806000
-1.93147979,-5.64806000
-1.93019979,-5.64806000
-1.92891979,-5.64806000
-1.92763979,-5.64806000
-1.92635979,-5.64806000
-1.92507979,-5.64806000
-1.92379979,-5.64806000
-1.92251979,-5.64806000
-1.92123979,-5.64806000
-1.91995979,-5.64806000
-1.91867979,-5.64806000
-1.91739979,-5.64806000
-1.91611979,-5.64806000
-1.91483979,-5.73656400
-1.91355979,-5.64806000
-1.91227979,-5.64806000
-1.91099979,-5.64806000
-1.90971979,-5.64806000
-1.90843979,-5.64806000
-1.90715979,-5.73656400
-1.90587979,-5.64806000
-1.90459979,-5.73656400
-1.90331979,-5.64806000
-1.90203979,-5.64806000
-1.90075979,-5.64806000
-1.89947979,-5.64806000
-1.89819979,-5.73656400
-1.89691979,-5.73656400
-1.89563979,-5.73656400
-1.89435979,-5.73656400
-1.89307979,-5.73656400
-1.89179979,-5.64806000
-1.89051979,-5.73656400
-1.88923979,-5.73656400
-1.88795979,-5.73656400
-1.88667979,-5.73656400
-1.88539979,-5.73656400
-1.88411979,-5.73656400
-1.88283979,-5.73656400
-1.88155979,-5.73656400
-1.88027979,-5.73656400
-1.87899979,-5.73656400
-1.87771979,-5.73656400
-1.87643979,-5.73656400
-1.87515979,-5.73656400
-1.87387979,-5.73656400
-1.87259979,-5.73656400
-1.87131979,-5.73656400
-1.87003979,-5.73656400
-1.86875979,-5.73656400
-1.86747979,-5.73656400
-1.86619979,-5.73656400
-1.86491979,-5.73656400
-1.86363979,-5.73656400
-1.86235979,-5.73656400
-1.86107979,-5.73656400
-1.85979979,-5.73656400
-1.85851979,-5.73656400
-1.85723979,-5.73656400
-1.85595979,-5.73656400
-1.85467979,-5.73656400
-1.85339979,-5.73656400
-1.85211979,-5.73656400
-1.85083979,-5.73656400
-1.84955979,-5.73656400
-1.84827979,-5.73656400
-1.84699979,-5.73656400
-1.84571979,-5.73656400
-1.84443979,-5.82476300
-1.84315979,-5.82476300
-1.84187979,-5.73656400
-1.84059979,-5.82476300
-1.83931979,-5.73656400
-1.83803979,-5.73656400
-1.83675979,-5.82476300
-1.83547979,-5.82476300
-1.83419979,-5.82476300
-1.83291979,-5.82476300
-1.83163979,-5.82476300
-1.83035979,-5.82476300
-1.82907979,-5.82476300
-1.82779979,-5.82476300
-1.82651979,-5.82476300
-1.82523979,-5.82476300
-1.82395979,-5.91296100
-1.82267979,-5.82476300
-1.82139979,-5.82476300
-1.82011979,-5.82476300
-1.81883979,-5.82476300
-1.81755979,-5.82476300
-1.81627979,-5.82476300
-1.81499979,-5.82476300
-1.81371979,-5.82476300
-1.81243979,-5.82476300
-1.81115979,-5.82476300
-1.80987979,-5.82476300
-1.80859979,-5.91296100
-1.80731979,-5.91296100
-1.80603979,-5.82476300
-1.80475979,-5.82476300
-1.80347979,-5.82476300
-1.80219979,-5.91296100
-1.80091979,-5.82476300
-1.79963979,-5.91296100
-1.79835979,-5.91296100
-1.79707979,-5.82476300
-1.79579979,-5.91296100
-1.79451979,-5.82476300
-1.79323979,-5.91296100
-1.79195979,-5.91296100
-1.79067979,-5.91296100
-1.78939979,-5.91296100
-1.78811979,-5.91296100
-1.78683979,-5.91296100
-1.78555979,-5.91296100
-1.78427979,-5.91296100
-1.78299979,-6.00116000
-1.78171979,-5.91296100
-1.78043979,-5.91296100
-1.77915979,-5.91296100
-1.77787979,-5.91296100
-1.77659979,-5.91296100
-1.77531979,-6.00116000
-1.77403979,-5.91296100
-1.77275979,-5.91296100
-1.77147979,-6.00116000
-1.77019979,-5.91296100
-1.76891979,-5.91296100
-1.76763979,-6.00116000
-1.76635979,-6.00116000
-1.76507979,-6.00116000
-1.76379979,-6.00116000
-1.76251979,-6.00116000
-1.76123979,-6.00116000
-1.75995979,-5.91296100
-1.75867979,-6.00116000
-1.75739979,-6.00116000
-1.75611979,-6.00116000
-1.75483979,-6.00116000
-1.75355979,-6.00116000
-1.75227979,-6.00116000
-1.75099979,-6.00116000
-1.74971979,-6.00116000
-1.74843979,-6.00116000
-1.74715979,-6.00116000
-1.74587979,-6.00116000
-1.74459979,-6.00116000
-1.74331979,-6.00116000
-1.74203979,-6.00116000
-1.74075979,-6.00116000
-1.73947979,-6.00116000
-1.73819979,-6.00116000
-1.73691979,-6.00116000
-1.73563979,-6.00116000
-1.73435979,-6.00116000
-1.73307979,-6.00116000
-1.73179979,-6.00116000
-1.73051979,-6.00116000
-1.72923979,-6.00116000
-1.72795979,-6.00116000
-1.72667979,-6.00116000
-1.72539979,-6.08935800
-1.72411979,-6.00116000
-1.72283979,-6.08935800
-1.72155979,-6.08935800
-1.72027979,-6.08935800
-1.71899980,-6.00116000
-1.71771980,-6.08935800
-1.71643980,-6.00116000
-1.71515980,-6.00116000
-1.71387980,-6.08935800
-1.71259980,-6.00116000
-1.71131980,-6.00116000
-1.71003980,-6.08935800
-1.70875980,-6.08935800
-1.70747980,-6.08935800
-1.70619980,-6.00116000
-1.70491980,-6.08935800
-1.70363980,-6.08935800
-1.70235980,-6.08935800
-1.70107980,-6.08935800
-1.69979980,-6.08935800
-1.69851980,-6.08935800
-1.69723980,-6.08935800
-1.69595980,-6.08935800
-1.69467980,-6.08935800
-1.69339980,-6.08935800
-1.69211980,-6.08935800
-1.69083980,-6.08935800
-1.68955980,-6.08935800
-1.68827980,-6.08935800
-1.68699980,-6.08935800
-1.68571980,-6.08935800
-1.68443980,-6.08935800
-1.68315980,-6.08935800
-1.68187980,-6.08935800
-1.68059980,-6.08935800
-1.67931980,-6.08935800
-1.67803980,-6.08935800
-1.67675980,-6.08935800
-1.67547980,-6.08935800
-1.67419980,-6.08935800
-1.67291980,-6.08935800
-1.67163980,-6.08935800
-1.67035980,-6.08935800
-1.66907980,-6.08935800
-1.66779980,-6.08935800
-1.66651980,-6.08935800
-1.66523980,-6.08935800
-1.66395980,-6.08935800
-1.66267980,-6.08935800
-1.66139980,-6.08935800
-1.66011980,-6.08935800
-1.65883980,-6.08935800
-1.65755980,-6.08935800
-1.65627980,-6.08935800
-1.65499980,-6.08935800
-1.65371980,-6.08935800
-1.65243980,-6.08935800
-1.65115980,-6.17755700
-1.64987980,-6.08935800
-1.64859980,-6.08935800
-1.64731980,-6.08935800
-1.64603980,-6.08935800
-1.64475980,-6.08935800
-1.64347980,-6.08935800
-1.64219980,-6.08935800
-1.64091980,-6.08935800
-1.63963980,-6.08935800
-1.63835980,-6.08935800
-1.63707980,-6.08935800
-1.63579980,-6.08935800
-1.63451980,-6.08935800
-1.63323980,-6.08935800
-1.63195980,-6.08935800
-1.63067980,-6.17755700
-1.62939980,-6.08935800
-1.62811980,-6.08935800
-1.62683980,-6.08935800
-1.62555980,-6.08935800
-1.62427980,-6.17755700
-1.62299980,-6.17755700
-1.62171980,-6.08935800
-1.62043980,-6.17755700
-1.61915980,-6.17755700
-1.61787980,-6.17755700
-1.61659980,-6.17755700
-1.61531980,-6.17755700
-1.61403980,-6.17755700
-1.61275980,-6.17755700
-1.61147980,-6.17755700
-1.61019980,-6.17755700
-1.60891980,-6.17755700
-1.60763980,-6.17755700
-1.60635980,-6.17755700
-1.60507980,-6.17755700
-1.60379980,-6.17755700
-1.60251980,-6.17755700
-1.60123980,-6.26575500
-1.59995980,-6.26575500
-1.59867980,-6.26575500
-1.59739980,-6.17755700
-1.59611980,-6.17755700
-1.59483980,-6.17755700
-1.59355980,-6.17755700
-1.59227980,-6.17755700
-1.59099980,-6.17755700
-1.58971980,-6.17755700
-1.58843980,-6.26575500
-1.58715980,-6.17755700
-1.58587980,-6.17755700
-1.58459980,-6.17755700
-1.58331980,-6.17755700
-1.58203980,-6.17755700
-1.58075980,-6.17755700
-1.57947980,-6.17755700
-1.57819980,-6.17755700
-1.57691980,-6.17755700
-1.57563980,-6.17755700
-1.57435980,-6.17755700
-1.57307980,-6.26575500
-1.57179980,-6.17755700
-1.57051980,-6.26575500
-1.56923980,-6.17755700
-1.56795980,-6.26575500
-1.56667980,-6.26575500
-1.56539980,-6.26575500
-1.56411980,-6.26575500
-1.56283980,-6.26575500
-1.56155980,-6.26575500
-1.56027980,-6.26575500
-1.55899980,-6.26575500
-1.55771980,-6.26575500
-1.55643980,-6.26575500
-1.55515980,-6.26575500
-1.55387980,-6.26575500
-1.55259980,-6.26575500
-1.55131980,-6.26575500
-1.55003980,-6.26575500
-1.54875980,-6.26575500
-1.54747980,-6.26575500
-1.54619980,-6.26575500
-1.54491980,-6.26575500
-1.54363980,-6.26575500
-1.54235980,-6.26575500
-1.54107980,-6.35395400
-1.53979980,-6.26575500
-1.53851980,-6.26575500
-1.53723980,-6.26575500
-1.53595980,-6.26575500
-1.53467980,-6.26575500
-1.53339980,-6.26575500
-1.53211980,-6.26575500
-1.53083980,-6.26575500
-1.52955980,-6.26575500
-1.52827980,-6.35395400
-1.52699980,-6.35395400
-1.52571980,-6.35395400
-1.52443980,-6.26575500
-1.52315980,-6.35395400
-1.52187980,-6.26575500
-1.52059980,-6.35395400
-1.51931980,-6.26575500
-1.51803980,-6.26575500
-1.51675980,-6.35395400
-1.51547980,-6.35395400
-1.51419980,-6.26575500
-1.51291980,-6.35395400
-1.51163980,-6.26575500
-1.51035980,-6.35395400
-1.50907980,-6.35395400
-1.50779980,-6.35395400
-1.50651980,-6.35395400
-1.50523980,-6.35395400
-1.50395980,-6.35395400
-1.50267980,-6.35395400
-1.50139980,-6.35395400
-1.50011980,-6.35395400
-1.49883980,-6.35395400
-1.49755980,-6.35395400
-1.49627980,-6.35395400
-1.49499980,-6.35395400
-1.49371980,-6.35395400
-1.49243980,-6.35395400
-1.49115980,-6.35395400
-1.48987980,-6.35395400
-1.48859980,-6.44245700
-1.48731980,-6.35395400
-1.48603980,-6.35395400
-1.48475980,-6.44245700
-1.48347980,-6.44245700
-1.48219980,-6.44245700
-1.48091980,-6.44245700
-1.47963980,-6.44245700
-1.47835980,-6.44245700
-1.47707980,-6.44245700
-1.47579980,-6.44245700
-1.47451980,-6.35395400
-1.47323980,-6.44245700
-1.47195980,-6.44245700
-1.47067980,-6.44245700
-1.46939980,-6.44245700
-1.46811980,-6.44245700
-1.46683980,-6.44245700
-1.46555980,-6.44245700
-1.46427980,-6.44245700
-1.46299980,-6.44245700
-1.46171980,-6.44245700
-1.46043980,-6.44245700
-1.45915980,-6.44245700
-1.45787980,-6.44245700
-1.45659980,-6.44245700
-1.45531980,-6.44245700
-1.45403980,-6.44245700
-1.45275980,-6.44245700
-1.45147980,-6.44245700
-1.45019980,-6.44245700
-1.44891980,-6.44245700
-1.44763980,-6.44245700
-1.44635980,-6.44245700
-1.44507980,-6.44245700
-1.44379980,-6.44245700
-1.44251980,-6.44245700
-1.44123980,-6.44245700
-1.43995980,-6.44245700
-1.43867980,-6.44245700
-1.43739980,-6.44245700
-1.43611980,-6.44245700
-1.43483980,-6.44245700
-1.43355980,-6.44245700
-1.43227980,-6.44245700
-1.43099980,-6.44245700
-1.42971980,-6.44245700
-1.42843980,-6.44245700
-1.42715980,-6.44245700
-1.42587980,-6.44245700
-1.42459980,-6.44245700
-1.42331980,-6.44245700
-1.42203980,-6.44245700
-1.42075980,-6.53065600
-1.41947980,-6.44245700
-1.41819980,-6.44245700
-1.41691980,-6.44245700
-1.41563980,-6.44245700
-1.41435980,-6.44245700
-1.41307980,-6.44245700
-1.41179980,-6.44245700
-1.41051980,-6.44245700
-1.40923980,-6.53065600
-1.40795980,-6.53065600
-1.40667980,-6.53065600
-1.40539980,-6.44245700
-1.40411980,-6.53065600
-1.40283980,-6.53065600
-1.40155980,-6.53065600
-1.40027980,-6.53065600
-1.39899980,-6.53065600
-1.39771980,-6.53065600
-1.39643980,-6.53065600
-1.39515980,-6.53065600
-1.39387980,-6.53065600
-1.39259980,-6.53065600
-1.39131980,-6.53065600
-1.39003980,-6.53065600
-1.38875980,-6.53065600
-1.38747980,-6.53065600
-1.38619980,-6.53065600
-1.38491980,-6.53065600
-1.38363980,-6.53065600
-1.38235980,-6.53065600
-1.38107980,-6.53065600
-1.37979980,-6.61885500
-1.37851980,-6.53065600
-1.37723980,-6.53065600
-1.37595980,-6.61885500
-1.37467980,-6.53065600
-1.37339980,-6.61885500
-1.37211980,-6.61885500
-1.37083980,-6.61885500
-1.36955980,-6.53065600
-1.36827980,-6.53065600
-1.36699980,-6.61885500
-1.36571980,-6.61885500
-1.36443980,-6.61885500
-1.36315980,-6.61885500
-1.36187980,-6.61885500
-1.36059980,-6.61885500
-1.35931980,-6.70705300
-1.35803980,-6.70705300
-1.35675980,-6.70705300
-1.35547980,-6.61885500
-1.35419980,-6.61885500
-1.35291980,-6.70705300
-1.35163980,-6.70705300
-1.35035980,-6.70705300
-1.34907980,-6.70705300
-1.34779980,-6.70705300
-1.34651980,-6.70705300
-1.34523980,-6.70705300
-1.34395980,-6.70705300
-1.34267980,-6.70705300
-1.34139980,-6.70705300
-1.34011980,-6.70705300
-1.33883980,-6.70705300
-1.33755980,-6.70705300
-1.33627980,-6.70705300
-1.33499980,-6.70705300
-1.33371980,-6.70705300
-1.33243980,-6.70705300
-1.33115980,-6.70705300
-1.32987980,-6.70705300
-1.32859980,-6.70705300
-1.32731980,-6.70705300
-1.32603980,-6.70705300
-1.32475980,-6.70705300
-1.32347980,-6.70705300
-1.32219980,-6.70705300
-1.32091980,-6.79525100
-1.31963980,-6.70705300
-1.31835980,-6.70705300
-1.31707980,-6.79525100
-1.31579980,-6.79525100
-1.31451980,-6.70705300
-1.31323980,-6.70705300
-1.31195980,-6.79525100
-1.31067980,-6.79525100
-1.30939980,-6.79525100
-1.30811980,-6.79525100
-1.30683980,-6.79525100
-1.30555980,-6.79525100
-1.30427980,-6.79525100
-1.30299980,-6.79525100
-1.30171980,-6.88345000
-1.30043980,-6.79525100
-1.29915980,-6.79525100
-1.29787980,-6.79525100
-1.29659980,-6.79525100
-1.29531980,-6.79525100
-1.29403980,-6.79525100
-1.29275980,-6.79525100
-1.29147980,-6.79525100
-1.29019980,-6.79525100
-1.28891980,-6.79525100
-1.28763980,-6.79525100
-1.28635980,-6.79525100
-1.28507980,-6.79525100
-1.28379980,-6.79525100
-1.28251980,-6.79525100
-1.28123980,-6.79525100
-1.27995980,-6.79525100
-1.27867980,-6.79525100
-1.27739980,-6.79525100
-1.27611980,-6.79525100
-1.27483980,-6.88345000
-1.27355980,-6.88345000
-1.27227980,-6.88345000
-1.27099980,-6.79525100
-1.26971980,-6.88345000
-1.26843980,-6.88345000
-1.26715980,-6.88345000
-1.26587980,-6.88345000
-1.26459980,-6.88345000
-1.26331980,-6.88345000
-1.26203980,-6.88345000
-1.26075980,-6.88345000
-1.25947980,-6.88345000
-1.25819980,-6.88345000
-1.25691980,-6.88345000
-1.25563980,-6.97164800
-1.25435980,-6.88345000
-1.25307980,-6.88345000
-1.25179980,-6.88345000
-1.25051980,-6.97164800
-1.24923980,-6.88345000
-1.24795980,-6.97164800
-1.24667980,-6.97164800
-1.24539980,-6.97164800
-1.24411980,-6.97164800
-1.24283980,-6.97164800
-1.24155980,-7.05984700
-1.24027980,-6.97164800
-1.23899980,-6.97164800
-1.23771980,-6.97164800
-1.23643980,-6.97164800
-1.23515980,-6.97164800
-1.23387980,-6.97164800
-1.23259980,-7.05984700
-1.23131980,-7.05984700
-1.23003980,-6.97164800
-1.22875980,-7.05984700
-1.22747980,-6.97164800
-1.22619980,-6.97164800
-1.22491980,-6.97164800
-1.22363980,-7.05984700
-1.22235980,-6.97164800
-1.22107980,-6.97164800
-1.21979980,-7.05984700
-1.21851980,-7.05984700
-1.21723980,-7.05984700
-1.21595980,-7.05984700
-1.21467980,-7.05984700
-1.21339980,-7.05984700
-1.21211980,-7.05984700
-1.21083980,-7.05984700
-1.20955980,-7.05984700
-1.20827980,-7.05984700
-1.20699980,-7.05984700
-1.20571980,-7.05984700
-1.20443980,-7.05984700
-1.20315980,-7.05984700
-1.20187980,-7.14835000
-1.20059980,-7.14835000
-1.19931980,-7.14835000
-1.19803980,-7.14835000
-1.19675980,-7.14835000
-1.19547980,-7.14835000
-1.19419980,-7.14835000
-1.19291980,-7.14835000
-1.19163980,-7.14835000
-1.19035980,-7.14835000
-1.18907980,-7.14835000
-1.18779980,-7.14835000
-1.18651980,-7.14835000
-1.18523980,-7.14835000
-1.18395980,-7.14835000
-1.18267980,-7.14835000
-1.18139980,-7.14835000
-1.18011980,-7.14835000
-1.17883980,-7.14835000
-1.17755980,-7.14835000
-1.17627980,-7.14835000
-1.17499980,-7.14835000
-1.17371980,-7.14835000
-1.17243980,-7.14835000
-1.17115980,-7.14835000
-1.16987980,-7.14835000
-1.16859980,-7.14835000
-1.16731980,-7.14835000
-1.16603980,-7.14835000
-1.16475980,-7.14835000
-1.16347980,-7.14835000
-1.16219980,-7.14835000
-1.16091980,-7.14835000
-1.15963980,-7.23654900
-1.15835980,-7.14835000
-1.15707980,-7.14835000
-1.15579980,-7.14835000
-1.15451980,-7.23654900
-1.15323980,-7.23654900
-1.15195980,-7.14835000
-1.15067980,-7.23654900
-1.14939980,-7.14835000
-1.14811980,-7.23654900
-1.14683980,-7.23654900
-1.14555980,-7.23654900
-1.14427980,-7.23654900
-1.14299980,-7.23654900
-1.14171980,-7.23654900
-1.14043980,-7.23654900
-1.13915980,-7.23654900
-1.13787980,-7.23654900
-1.13659980,-7.23654900
-1.13531980,-7.23654900
-1.13403980,-7.23654900
-1.13275980,-7.23654900
-1.13147980,-7.23654900
-1.13019980,-7.23654900
-1.12891980,-7.32474800
-1.12763980,-7.23654900
-1.12635980,-7.23654900
-1.12507980,-7.32474800
-1.12379980,-7.32474800
-1.12251980,-7.41294600
-1.12123980,-7.32474800
-1.11995980,-7.32474800
-1.11867980,-7.32474800
-1.11739980,-7.32474800
-1.11611980,-7.32474800
-1.11483980,-7.32474800
-1.11355980,-7.32474800
-1.11227980,-7.41294600
-1.11099980,-7.41294600
-1.10971980,-7.32474800
-1.10843980,-7.41294600
-1.10715980,-7.32474800
-1.10587980,-7.32474800
-1.10459980,-7.32474800
-1.10331980,-7.41294600
-1.10203980,-7.32474800
-1.10075980,-7.41294600
-1.09947980,-7.41294600
-1.09819980,-7.41294600
-1.09691980,-7.41294600
-1.09563980,-7.41294600
-1.09435980,-7.41294600
-1.09307980,-7.41294600
-1.09179980,-7.41294600
-1.09051980,-7.41294600
-1.08923980,-7.41294600
-1.08795980,-7.41294600
-1.08667980,-7.41294600
-1.08539980,-7.41294600
-1.08411980,-7.41294600
-1.08283980,-7.41294600
-1.08155980,-7.41294600
-1.08027980,-7.41294600
-1.07899980,-7.41294600
-1.07771980,-7.41294600
-1.07643980,-7.50114400
-1.07515980,-7.50114400
-1.07387980,-7.41294600
-1.07259980,-7.41294600
-1.07131980,-7.41294600
-1.07003980,-7.41294600
-1.06875980,-7.50114400
-1.06747980,-7.41294600
-1.06619980,-7.50114400
-1.06491980,-7.50114400
-1.06363980,-7.50114400
-1.06235980,-7.50114400
-1.06107980,-7.50114400
-1.05979980,-7.50114400
-1.05851980,-7.50114400
-1.05723980,-7.50114400
-1.05595980,-7.50114400
-1.05467980,-7.50114400
-1.05339980,-7.50114400
-1.05211980,-7.50114400
-1.05083980,-7.50114400
-1.04955980,-7.50114400
-1.04827980,-7.50114400
-1.04699980,-7.50114400
-1.04571980,-7.50114400
-1.04443980,-7.50114400
-1.04315980,-7.50114400
-1.04187980,-7.50114400
-1.04059980,-7.50114400
-1.03931980,-7.50114400
-1.03803980,-7.50114400
-1.03675980,-7.50114400
-1.03547980,-7.50114400
-1.03419980,-7.50114400
-1.03291980,-7.50114400
-1.03163980,-7.50114400
-1.03035980,-7.50114400
-1.02907980,-7.50114400
-1.02779980,-7.50114400
-1.02651980,-7.50114400
-1.02523980,-7.58934300
-1.02395980,-7.50114400
-1.02267980,-7.50114400
-1.02139980,-7.50114400
-1.02011980,-7.50114400
-1.01883980,-7.58934300
-1.01755980,-7.50114400
-1.01627980,-7.58934300
-1.01499980,-7.58934300
-1.01371980,-7.58934300
-1.01243980,-7.58934300
-1.01115980,-7.58934300
-1.00987980,-7.58934300
-1.00859980,-7.58934300
-1.00731980,-7.58934300
-1.00603980,-7.58934300
-1.00475980,-7.58934300
-1.00347980,-7.67754100
-1.00219980,-7.58934300
-1.00091980,-7.58934300
-0.99963980,-7.67754100
-0.99835980,-7.58934300
-0.99707980,-7.58934300
-0.99579980,-7.58934300
-0.99451980,-7.67754100
-0.99323980,-7.58934300
-0.99195980,-7.67754100
-0.99067980,-7.58934300
-0.98939980,-7.67754100
-0.98811980,-7.67754100
-0.98683980,-7.67754100
-0.98555980,-7.67754100
-0.98427980,-7.67754100
-0.98299980,-7.67754100
-0.98171980,-7.67754100
-0.98043980,-7.67754100
-0.97915980,-7.67754100
-0.97787980,-7.67754100
-0.97659980,-7.67754100
-0.97531980,-7.67754100
-0.97403980,-7.67754100
-0.97275980,-7.67754100
-0.97147980,-7.76574000
-0.97019980,-7.67754100
-0.96891980,-7.76574000
-0.96763980,-7.67754100
-0.96635980,-7.76574000
-0.96507980,-7.76574000
-0.96379980,-7.76574000
-0.96251980,-7.67754100
-0.96123980,-7.76574000
-0.95995980,-7.76574000
-0.95867980,-7.76574000
-0.95739980,-7.76574000
-0.95611980,-7.76574000
-0.95483980,-7.76574000
-0.95355980,-7.76574000
-0.95227980,-7.76574000
-0.95099980,-7.76574000
-0.94971980,-7.76574000
-0.94843980,-7.76574000
-0.94715980,-7.76574000
-0.94587980,-7.76574000
-0.94459980,-7.85424400
-0.94331980,-7.85424400
-0.94203980,-7.76574000
-0.94075980,-7.85424400
-0.93947980,-7.76574000
-0.93819980,-7.76574000
-0.93691980,-7.76574000
-0.93563980,-7.85424400
-0.93435980,-7.76574000
-0.93307980,-7.85424400
-0.93179980,-7.76574000
-0.93051980,-7.85424400
-0.92923980,-7.85424400
-0.92795980,-7.85424400
-0.92667980,-7.85424400
-0.92539980,-7.85424400
-0.92411980,-7.85424400
-0.92283980,-7.85424400
-0.92155980,-7.85424400
-0.92027980,-7.85424400
-0.91899980,-7.85424400
-0.91771980,-7.85424400
-0.91643980,-7.85424400
-0.91515980,-7.85424400
-0.91387980,-7.85424400
-0.91259980,-7.85424400
-0.91131980,-7.85424400
-0.91003980,-7.85424400
-0.90875980,-7.85424400
-0.90747980,-7.85424400
-0.90619980,-7.85424400
-0.90491980,-7.85424400
-0.90363980,-7.85424400
-0.90235980,-7.85424400
-0.90107980,-7.85424400
-0.89979980,-7.85424400
-0.89851980,-7.85424400
-0.89723980,-7.85424400
-0.89595980,-7.85424400
-0.89467980,-7.85424400
-0.89339980,-7.85424400
-0.89211980,-7.85424400
-0.89083980,-7.85424400
-0.88955980,-7.85424400
-0.88827980,-7.85424400
-0.88699980,-7.85424400
-0.88571980,-7.94244200
-0.88443980,-7.85424400
-0.88315980,-7.85424400
-0.88187980,-7.85424400
-0.88059980,-7.94244200
-0.87931980,-7.85424400
-0.87803980,-7.94244200
-0.87675980,-7.94244200
-0.87547980,-7.94244200
-0.87419980,-7.94244200
-0.87291980,-7.94244200
-0.87163980,-7.94244200
-0.87035980,-7.94244200
-0.86907980,-7.94244200
-0.86779980,-7.94244200
-0.86651980,-7.94244200
-0.86523980,-8.03064100
-0.86395980,-7.94244200
-0.86267980,-7.94244200
-0.86139980,-7.94244200
-0.86011980,-8.03064100
-0.85883980,-7.94244200
-0.85755980,-8.03064100
-0.85627980,-7.94244200
-0.85499980,-8.03064100
-0.85371980,-8.03064100
-0.85243980,-8.03064100
-0.85115980,-8.03064100
-0.84987980,-8.03064100
-0.84859980,-8.03064100
-0.84731980,-8.03064100
-0.84603980,-8.03064100
-0.84475980,-8.03064100
-0.84347980,-8.11883900
-0.84219980,-8.03064100
-0.84091980,-8.03064100
-0.83963980,-8.03064100
-0.83835980,-8.03064100
-0.83707980,-8.11883900
-0.83579980,-8.11883900
-0.83451980,-8.03064100
-0.83323980,-8.11883900
-0.83195980,-8.03064100
-0.83067980,-8.11883900
-0.82939980,-8.11883900
-0.82811980,-8.11883900
-0.82683980,-8.11883900
-0.82555980,-8.20703800
-0.82427980,-8.11883900
-0.82299980,-8.11883900
-0.82171980,-8.11883900
-0.82043980,-8.11883900
-0.81915980,-8.11883900
-0.81787980,-8.11883900
-0.81659980,-8.11883900
-0.81531980,-8.11883900
-0.81403980,-8.11883900
-0.81275980,-8.11883900
-0.81147980,-8.11883900
-0.81019980,-8.11883900
-0.80891980,-8.11883900
-0.80763980,-8.11883900
-0.80635980,-8.11883900
-0.80507980,-8.11883900
-0.80379980,-8.20703800
-0.80251980,-8.11883900
-0.80123980,-8.20703800
-0.79995980,-8.11883900
-0.79867980,-8.11883900
-0.79739980,-8.11883900
-0.79611980,-8.20703800
-0.79483980,-8.11883900
-0.79355980,-8.20703800
-0.79227980,-8.20703800
-0.79099980,-8.20703800
-0.78971980,-8.20703800
-0.78843980,-8.20703800
-0.78715980,-8.20703800
-0.78587980,-8.20703800
-0.78459980,-8.20703800
-0.78331980,-8.20703800
-0.78203980,-8.20703800
-0.78075980,-8.20703800
-0.77947980,-8.20703800
-0.77819980,-8.20703800
-0.77691980,-8.20703800
-0.77563980,-8.20703800
-0.77435980,-8.20703800
-0.77307980,-8.20703800
-0.77179980,-8.20703800
-0.77051980,-8.20703800
-0.76923980,-8.20703800
-0.76795980,-8.20703800
-0.76667980,-8.29523600
-0.76539980,-8.29523600
-0.76411980,-8.20703800
-0.76283980,-8.20703800
-0.76155980,-8.20703800
-0.76027980,-8.20703800
-0.75899980,-8.29523600
-0.75771980,-8.29523600
-0.75643980,-8.20703800
-0.75515980,-8.29523600
-0.75387980,-8.29523600
-0.75259980,-8.29523600
-0.75131980,-8.29523600
-0.75003980,-8.29523600
-0.74875980,-8.29523600
-0.74747980,-8.29523600
-0.74619980,-8.29523600
-0.74491980,-8.29523600
-0.74363980,-8.29523600
-0.74235980,-8.29523600
-0.74107980,-8.29523600
-0.73979980,-8.29523600
-0.73851980,-8.38343400
-0.73723980,-8.29523600
-0.73595980,-8.29523600
-0.73467980,-8.38343400
-0.73339980,-8.29523600
-0.73211980,-8.38343400
-0.73083980,-8.29523600
-0.72955980,-8.29523600
-0.72827980,-8.29523600
-0.72699980,-8.38343400
-0.72571980,-8.38343400
-0.72443980,-8.38343400
-0.72315980,-8.38343400
-0.72187980,-8.38343400
-0.72059980,-8.29523600
-0.71931980,-8.38343400
-0.71803980,-8.38343400
-0.71675980,-8.38343400
-0.71547980,-8.38343400
-0.71419980,-8.38343400
-0.71291980,-8.47163300
-0.71163980,-8.38343400
-0.71035980,-8.47163300
-0.70907980,-8.38343400
-0.70779980,-8.47163300
-0.70651980,-8.47163300
-0.70523980,-8.47163300
-0.70395980,-8.47163300
-0.70267980,-8.47163300
-0.70139980,-8.47163300
-0.70011980,-8.47163300
-0.69883980,-8.47163300
-0.69755980,-8.47163300
-0.69627980,-8.47163300
-0.69499980,-8.47163300
-0.69371980,-8.47163300
-0.69243980,-8.47163300
-0.69115980,-8.47163300
-0.68987980,-8.47163300
-0.68859980,-8.47163300
-0.68731980,-8.47163300
-0.68603980,-8.47163300
-0.68475980,-8.47163300
-0.68347980,-8.47163300
-0.68219980,-8.56013700
-0.68091980,-8.47163300
-0.67963980,-8.47163300
-0.67835980,-8.47163300
-0.67707980,-8.56013700
-0.67579980,-8.47163300
-0.67451980,-8.47163300
-0.67323980,-8.47163300
-0.67195980,-8.47163300
-0.67067980,-8.56013700
-0.66939980,-8.47163300
-0.66811980,-8.56013700
-0.66683980,-8.47163300
-0.66555980,-8.56013700
-0.66427980,-8.56013700
-0.66299980,-8.56013700
-0.66171980,-8.47163300
-0.66043980,-8.56013700
-0.65915980,-8.56013700
-0.65787980,-8.56013700
-0.65659980,-8.56013700
-0.65531980,-8.56013700
-0.65403980,-8.56013700
-0.65275980,-8.56013700
-0.65147980,-8.56013700
-0.65019980,-8.56013700
-0.64891980,-8.56013700
-0.64763980,-8.64833500
-0.64635980,-8.56013700
-0.64507980,-8.56013700
-0.64379980,-8.56013700
-0.64251980,-8.56013700
-0.64123980,-8.56013700
-0.63995980,-8.56013700
-0.63867980,-8.56013700
-0.63739980,-8.56013700
-0.63611980,-8.64833500
-0.63483980,-8.56013700
-0.63355980,-8.56013700
-0.63227980,-8.56013700
-0.63099980,-8.56013700
-0.62971980,-8.56013700
-0.62843980,-8.56013700
-0.62715980,-8.56013700
-0.62587980,-8.56013700
-0.62459980,-8.56013700
-0.62331980,-8.64833500
-0.62203980,-8.64833500
-0.62075980,-8.64833500
-0.61947980,-8.56013700
-0.61819980,-8.64833500
-0.61691980,-8.64833500
-0.61563980,-8.64833500
-0.61435980,-8.64833500
-0.61307980,-8.64833500
-0.61179980,-8.64833500
-0.61051980,-8.64833500
-0.60923980,-8.64833500
-0.60795980,-8.64833500
-0.60667980,-8.64833500
-0.60539980,-8.73653400
-0.60411980,-8.73653400
-0.60283980,-8.73653400
-0.60155980,-8.64833500
-0.60027980,-8.64833500
-0.59899980,-8.73653400
-0.59771980,-8.64833500
-0.59643980,-8.73653400
-0.59515980,-8.73653400
-0.59387980,-8.73653400
-0.59259980,-8.73653400
-0.59131980,-8.73653400
-0.59003980,-8.73653400
-0.58875980,-8.82473200
-0.58747980,-8.73653400
-0.58619980,-8.73653400
-0.58491980,-8.73653400
-0.58363980,-8.73653400
-0.58235980,-8.73653400
-0.58107980,-8.73653400
-0.57979980,-8.73653400
-0.57851980,-8.73653400
-0.57723980,-8.73653400
-0.57595980,-8.73653400
-0.57467980,-8.73653400
-0.57339980,-8.82473200
-0.57211980,-8.82473200
-0.57083980,-8.73653400
-0.56955980,-8.82473200
-0.56827980,-8.82473200
-0.56699980,-8.82473200
-0.56571980,-8.82473200
-0.56443980,-8.82473200
-0.56315980,-8.82473200
-0.56187980,-8.73653400
-0.56059980,-8.82473200
-0.55931980,-8.82473200
-0.55803980,-8.82473200
-0.55675980,-8.82473200
-0.55547980,-8.82473200
-0.55419980,-8.82473200
-0.55291980,-8.82473200
-0.55163980,-8.82473200
-0.55035980,-8.82473200
-0.54907980,-8.82473200
-0.54779980,-8.91293000
-0.54651980,-8.82473200
-0.54523980,-8.82473200
-0.54395980,-8.82473200
-0.54267980,-8.91293000
-0.54139980,-8.82473200
-0.54011980,-8.91293000
-0.53883980,-8.82473200
-0.53755980,-8.91293000
-0.53627980,-8.82473200
-0.53499980,-8.82473200
-0.53371980,-8.91293000
-0.53243980,-8.91293000
-0.53115980,-8.91293000
-0.52987980,-8.91293000
-0.52859980,-8.91293000
-0.52731980,-8.91293000
-0.52603980,-8.91293000
-0.52475980,-8.91293000
-0.52347980,-8.91293000
-0.52219980,-8.91293000
-0.52091980,-8.91293000
-0.51963980,-8.91293000
-0.51835980,-8.91293000
-0.51707980,-8.91293000
-0.51579980,-8.91293000
-0.51451980,-8.91293000
-0.51323980,-8.91293000
-0.51195980,-8.91293000
-0.51067980,-8.91293000
-0.50939980,-8.91293000
-0.50811980,-8.91293000
-0.50683980,-8.91293000
-0.50555980,-8.91293000
-0.50427980,-8.91293000
-0.50299980,-8.91293000
-0.50171980,-8.91293000
-0.50043980,-8.91293000
-0.49915980,-8.91293000
-0.49787980,-8.91293000
-0.49659980,-8.91293000
-0.49531980,-8.91293000
-0.49403980,-8.91293000
-0.49275980,-8.91293000
-0.49147980,-8.91293000
-0.49019980,-8.91293000
-0.48891980,-8.91293000
-0.48763980,-8.91293000
-0.48635980,-8.91293000
-0.48507980,-8.91293000
-0.48379980,-8.91293000
-0.48251980,-9.00112900
-0.48123980,-8.91293000
-0.47995980,-8.91293000
-0.47867980,-8.91293000
-0.47739980,-8.91293000
-0.47611980,-9.00112900
-0.47483980,-9.00112900
-0.47355980,-9.00112900
-0.47227980,-9.00112900
-0.47099980,-9.00112900
-0.46971980,-9.08932800
-0.46843980,-9.00112900
-0.46715980,-9.00112900
-0.46587980,-9.00112900
-0.46459980,-9.00112900
-0.46331980,-9.00112900
-0.46203980,-9.00112900
-0.46075980,-9.00112900
-0.45947980,-9.00112900
-0.45819980,-9.00112900
-0.45691980,-9.00112900
-0.45563980,-9.00112900
-0.45435980,-9.00112900
-0.45307980,-9.08932800
-0.45179980,-9.00112900
-0.45051980,-9.08932800
-0.44923980,-9.08932800
-0.44795980,-9.00112900
-0.44667980,-9.00112900
-0.44539980,-9.08932800
-0.44411980,-9.08932800
-0.44283980,-9.08932800
-0.44155980,-9.08932800
-0.44027980,-9.00112900
-0.43899980,-9.08932800
-0.43771980,-9.08932800
-0.43643980,-9.08932800
-0.43515980,-9.08932800
-0.43387980,-9.08932800
-0.43259980,-9.08932800
-0.43131980,-9.08932800
-0.43003980,-9.08932800
-0.42875980,-9.08932800
-0.42747980,-9.08932800
-0.42619980,-9.08932800
-0.42491980,-9.08932800
-0.42363980,-9.08932800
-0.42235980,-9.17752600
-0.42107980,-9.08932800
-0.41979980,-9.08932800
-0.41851980,-9.08932800
-0.41723980,-9.08932800
-0.41595980,-9.08932800
-0.41467980,-9.08932800
-0.41339980,-9.08932800
-0.41211980,-9.17752600
-0.41083980,-9.17752600
-0.40955980,-9.17752600
-0.40827980,-9.08932800
-0.40699980,-9.17752600
-0.40571980,-9.17752600
-0.40443980,-9.08932800
-0.40315980,-9.17752600
-0.40187980,-9.08932800
-0.40059980,-9.17752600
-0.39931980,-9.17752600
-0.39803980,-9.17752600
-0.39675980,-9.17752600
-0.39547980,-9.17752600
-0.39419980,-9.17752600
-0.39291980,-9.17752600
-0.39163980,-9.17752600
-0.39035980,-9.17752600
-0.38907980,-9.17752600
-0.38779980,-9.17752600
-0.38651980,-9.17752600
-0.38523980,-9.17752600
-0.38395980,-9.26603000
-0.38267980,-9.17752600
-0.38139980,-9.17752600
-0.38011980,-9.26603000
-0.37883980,-9.17752600
-0.37755980,-9.26603000
-0.37627980,-9.26603000
-0.37499980,-9.26603000
-0.37371980,-9.26603000
-0.37243980,-9.17752600
-0.37115980,-9.26603000
-0.36987980,-9.26603000
-0.36859980,-9.26603000
-0.36731980,-9.26603000
-0.36603980,-9.26603000
-0.36475980,-9.26603000
-0.36347980,-9.26603000
-0.36219980,-9.17752600
-0.36091980,-9.26603000
-0.35963980,-9.26603000
-0.35835980,-9.26603000
-0.35707980,-9.26603000
-0.35579980,-9.26603000
-0.35451980,-9.26603000
-0.35323980,-9.17752600
-0.35195980,-9.26603000
-0.35067980,-9.26603000
-0.34939980,-9.26603000
-0.34811980,-9.26603000
-0.34683980,-9.26603000
-0.34555980,-9.26603000
-0.34427980,-9.26603000
-0.34299980,-9.26603000
-0.34171980,-9.26603000
-0.34043980,-9.26603000
-0.33915980,-9.26603000
-0.33787980,-9.26603000
-0.33659980,-9.26603000
-0.33531980,-9.26603000
-0.33403980,-9.26603000
-0.33275980,-9.26603000
-0.33147980,-9.26603000
-0.33019980,-9.26603000
-0.32891980,-9.26603000
-0.32763980,-9.26603000
-0.32635980,-9.26603000
-0.32507980,-9.26603000
-0.32379980,-9.26603000
-0.32251980,-9.26603000
-0.32123980,-9.26603000
-0.31995980,-9.26603000
-0.31867980,-9.26603000
-0.31739980,-9.26603000
-0.31611980,-9.26603000
-0.31483980,-9.26603000
-0.31355980,-9.26603000
-0.31227980,-9.26603000
-0.31099980,-9.26603000
-0.30971980,-9.26603000
-0.30843980,-9.26603000
-0.30715980,-9.26603000
-0.30587980,-9.26603000
-0.30459980,-9.26603000
-0.30331980,-9.26603000
-0.30203980,-9.26603000
-0.30075980,-9.26603000
-0.29947980,-9.26603000
-0.29819980,-9.35422800
-0.29691980,-9.26603000
-0.29563980,-9.26603000
-0.29435980,-9.35422800
-0.29307980,-9.26603000
-0.29179980,-9.35422800
-0.29051980,-9.35422800
-0.28923980,-9.35422800
-0.28795980,-9.35422800
-0.28667980,-9.35422800
-0.28539980,-9.26603000
-0.28411980,-9.35422800
-0.28283980,-9.26603000
-0.28155980,-9.35422800
-0.28027980,-9.35422800
-0.27899980,-9.35422800
-0.27771980,-9.35422800
-0.27643980,-9.35422800
-0.27515980,-9.26603000
-0.27387980,-9.35422800
-0.27259980,-9.35422800
-0.27131980,-9.35422800
-0.27003980,-9.35422800
-0.26875980,-9.35422800
-0.26747980,-9.35422800
-0.26619980,-9.35422800
-0.26491980,-9.35422800
-0.26363980,-9.44242700
-0.26235980,-9.44242700
-0.26107980,-9.35422800
-0.25979980,-9.35422800
-0.25851980,-9.35422800
-0.25723980,-9.44242700
-0.25595980,-9.35422800
-0.25467980,-9.35422800
-0.25339980,-9.35422800
-0.25211980,-9.35422800
-0.25083980,-9.44242700
-0.24955980,-9.44242700
-0.24827980,-9.44242700
-0.24699980,-9.35422800
-0.24571980,-9.44242700
-0.24443980,-9.44242700
-0.24315980,-9.35422800
-0.24187980,-9.35422800
-0.24059980,-9.44242700
-0.23931980,-9.44242700
-0.23803980,-9.44242700
-0.23675980,-9.44242700
-0.23547980,-9.44242700
-0.23419980,-9.44242700
-0.23291980,-9.53062500
-0.23163980,-9.44242700
-0.23035980,-9.44242700
-0.22907980,-9.44242700
-0.22779980,-9.44242700
-0.22651980,-9.44242700
-0.22523980,-9.44242700
-0.22395980,-9.44242700
-0.22267980,-9.44242700
-0.22139980,-9.53062500
-0.22011980,-9.44242700
-0.21883980,-9.44242700
-0.21755980,-9.53062500
-0.21627980,-9.44242700
-0.21499980,-9.44242700
-0.21371980,-9.44242700
-0.21243980,-9.44242700
-0.21115980,-9.44242700
-0.20987980,-9.44242700
-0.20859980,-9.53062500
-0.20731980,-9.44242700
-0.20603980,-9.53062500
-0.20475980,-9.53062500
-0.20347980,-9.44242700
-0.20219980,-9.44242700
-0.20091980,-9.44242700
-0.19963980,-9.53062500
-0.19835980,-9.53062500
-0.19707980,-9.53062500
-0.19579980,-9.53062500
-0.19451980,-9.53062500
-0.19323980,-9.53062500
-0.19195980,-9.44242700
-0.19067980,-9.44242700
-0.18939980,-9.53062500
-0.18811980,-9.53062500
-0.18683980,-9.53062500
-0.18555980,-9.53062500
-0.18427980,-9.53062500
-0.18299980,-9.53062500
-0.18171980,-9.53062500
-0.18043980,-9.53062500
-0.17915980,-9.53062500
-0.17787980,-9.53062500
-0.17659980,-9.53062500
-0.17531980,-9.53062500
-0.17403980,-9.53062500
-0.17275980,-9.53062500
-0.17147980,-9.53062500
-0.17019980,-9.53062500
-0.16891980,-9.53062500
-0.16763980,-9.53062500
-0.16635980,-9.53062500
-0.16507980,-9.53062500
-0.16379980,-9.53062500
-0.16251980,-9.53062500
-0.16123980,-9.53062500
-0.15995980,-9.53062500
-0.15867980,-9.53062500
-0.15739980,-9.53062500
-0.15611980,-9.53062500
-0.15483980,-9.53062500
-0.15355980,-9.53062500
-0.15227980,-9.61882400
-0.15099980,-9.53062500
-0.14971980,-9.61882400
-0.14843980,-9.53062500
-0.14715980,-9.53062500
-0.14587980,-9.61882400
-0.14459980,-9.61882400
-0.14331980,-9.53062500
-0.14203980,-9.61882400
-0.14075980,-9.53062500
-0.13947980,-9.61882400
-0.13819980,-9.61882400
-0.13691980,-9.53062500
-0.13563980,-9.61882400
-0.13435980,-9.53062500
-0.13307980,-9.53062500
-0.13179980,-9.61882400
-0.13051980,-9.61882400
-0.12923980,-9.53062500
-0.12795980,-9.61882400
-0.12667980,-9.61882400
-0.12539980,-9.53062500
-0.12411980,-9.61882400
-0.12283980,-9.61882400
-0.12155980,-9.61882400
-0.12027980,-9.61882400
-0.11899980,-9.61882400
-0.11771980,-9.53062500
-0.11643980,-9.61882400
-0.11515980,-9.61882400
-0.11387980,-9.61882400
-0.11259980,-9.70702300
-0.11131980,-9.61882400
-0.11003980,-9.61882400
-0.10875980,-9.61882400
-0.10747980,-9.61882400
-0.10619980,-9.61882400
-0.10491980,-9.61882400
-0.10363980,-9.61882400
-0.10235980,-9.61882400
-0.10107980,-9.61882400
-0.09979980,-9.61882400
-0.09851980,-9.61882400
-0.09723980,-9.61882400
-0.09595980,-9.61882400
-0.09467980,-9.61882400
-0.09339980,-9.61882400
-0.09211980,-9.61882400
-0.09083980,-9.61882400
-0.08955980,-9.61882400
-0.08827980,-9.61882400
-0.08699980,-9.61882400
-0.08571980,-9.61882400
-0.08443980,-9.61882400
-0.08315980,-9.61882400
-0.08187980,-9.61882400
-0.08059980,-9.61882400
-0.07931980,-9.61882400
-0.07803980,-9.61882400
-0.07675980,-9.61882400
-0.07547980,-9.61882400
-0.07419980,-9.61882400
-0.07291981,-9.61882400
-0.07163981,-9.61882400
-0.07035981,-9.61882400
-0.06907981,-9.61882400
-0.06779981,-9.61882400
-0.06651981,-9.61882400
-0.06523981,-9.53062500
-0.06395981,-9.35422800
-0.06267981,-9.08932800
-0.06139981,-8.73653400
-0.06011981,-8.38343400
-0.05883981,-7.85424400
-0.05755981,-7.41294600
-0.05627981,-6.88345000
-0.05499981,-6.35395400
-0.05371981,-5.82476300
-0.05243981,-5.38346500
-0.05115981,-5.20706800
-0.04987981,-4.41297600
-0.04859981,-4.05987700
-0.04731981,-3.79528200
-0.04603981,-3.70708300
-0.04475981,-3.79528200
-0.04347981,-3.79528200
-0.04219981,-3.79528200
-0.04091981,-3.88348000
-0.03963981,-3.88348000
-0.03835981,-3.88348000
-0.03707981,-3.88348000
-0.03579981,-3.88348000
-0.03451981,-3.88348000
-0.03323981,-3.88348000
-0.03195981,-3.88348000
-0.03067981,-3.88348000
-0.02939981,-3.88348000
-0.02811981,-3.79528200
-0.02683981,-3.79528200
-0.02555981,-3.70708300
-0.02427981,-3.61888500
-0.02299981,-3.44218300
-0.02171981,-3.35398400
-0.02043981,-3.17758700
-0.01915981,-3.00119000
-0.01787981,-2.82448800
-0.01659981,-2.64809100
-0.01531981,-2.47169400
-0.01403981,-2.20709800
-0.01275981,-2.03039600
-0.01147981,-1.85399900
-0.01019981,-1.58940400
-0.00891981,-1.32450300
-0.00763981,-1.05990800
-0.00635981,-0.79531230
-0.00507981,-0.70680870
-0.00379981,-0.44221320
-0.00251981,-0.26581620
-0.00123981,-0.08941923
0.00004019,-0.00122074
0.00132019,0.08697775
0.00260019,0.26337470
0.00388019,0.35157320
0.00516019,0.43977170
0.00644019,0.52797020
0.00772019,0.70467240
0.00900019,0.70467240
0.01028019,0.88106940
0.01156019,0.88106940
0.01284019,1.05746600
0.01412019,1.05746600
0.01540019,1.14566500
0.01668019,1.14566500
0.01796019,1.32236700
0.01924019,1.32236700
0.02052019,1.32236700
0.02180019,1.41056500
0.02308019,1.41056500
0.02436019,1.41056500
0.02564019,1.41056500
0.02692019,1.41056500
0.02820019,1.41056500
0.02948019,1.41056500
0.03076019,1.32236700
0.03204019,1.32236700
0.03332019,1.32236700
0.03460019,1.32236700
0.03588019,1.23386300
0.03716019,1.14566500
0.03844019,1.05746600
0.03972019,1.05746600
0.04100019,0.96926780
0.04228019,0.88106940
0.04356019,0.79287090
0.04484019,0.70467240
0.04612019,0.61647390
0.04740019,0.61647390
0.04868019,0.43977170
0.04996019,0.35157320
0.05124019,0.26337470
0.05252019,0.17517620
0.05380019,0.08697775
0.05508019,-0.00122074
0.05636019,-0.08941923
0.05764019,-0.17761770
0.05892019,-0.26581620
0.06020019,-0.35401470
0.06148019,-0.44221320
0.06276019,-0.44221320
0.06404019,-0.61861020
0.06532019,-0.70680870
0.06660019,-0.70680870
0.06788019,-0.79531230
0.06916019,-0.79531230
0.07044019,-0.88351080
0.07172019,-0.97170940
0.07300019,-0.97170940
0.07428019,-1.05990800
0.07556019,-1.05990800
0.07684019,-1.05990800
0.07812019,-1.05990800
0.07940019,-1.05990800
0.08068019,-1.05990800
0.08196019,-1.05990800
0.08324019,-1.05990800
0.08452019,-1.05990800
0.08580019,-1.05990800
0.08708019,-0.97170940
0.08836019,-0.97170940
0.08964019,-0.88351080
0.09092019,-0.88351080
0.09220019,-0.79531230
0.09348019,-0.79531230
0.09476019,-0.70680870
0.09604019,-0.61861020
0.09732019,-0.61861020
0.09860019,-0.53041170
0.09988019,-0.44221320
0.10116019,-0.35401470
0.10244019,-0.35401470
0.10372019,-0.26581620
0.10500019,-0.17761770
0.10628019,-0.08941923
0.10756019,-0.00122074
0.10884019,-0.00122074
0.11012019,0.08697775
0.11140019,0.26337470
0.11268019,0.26337470
0.11396019,0.26337470
0.11524019,0.35157320
0.11652019,0.43977170
0.11780019,0.52797020
0.11908019,0.61647390
0.12036019,0.61647390
0.12164019,0.61647390
0.12292019,0.70467240
0.12420019,0.70467240
0.12548019,0.70467240
0.12676019,0.79287090
0.12804019,0.70467240
0.12932019,0.88106940
0.13060019,0.79287090
0.13188019,0.88106940
0.13316019,0.79287090
0.13444019,0.79287090
0.13572019,0.79287090
0.13700019,0.79287090
0.13828019,0.79287090
0.13956019,0.79287090
0.14084019,0.79287090
0.14212019,0.79287090
0.14340019,0.79287090
0.14468019,0.79287090
0.14596019,0.79287090
0.14724019,0.79287090
0.14852019,0.79287090
0.14980019,0.79287090
0.15108019,0.79287090
0.15236019,0.70467240
0.15364019,0.79287090
0.15492019,0.70467240
0.15620019,0.70467240
0.15748019,0.70467240
0.15876019,0.70467240
0.16004019,0.79287090
0.16132019,0.70467240
0.16260019,0.70467240
0.16388019,0.70467240
0.16516019,0.79287090
0.16644019,0.70467240
0.16772019,0.70467240
0.16900019,0.79287090
0.17028019,0.70467240
0.17156019,0.70467240
0.17284019,0.70467240
0.17412019,0.70467240
0.17540019,0.70467240
0.17668019,0.70467240
0.17796019,0.70467240
0.17924019,0.70467240
0.18052019,0.70467240
0.18180019,0.70467240
0.18308019,0.70467240
0.18436019,0.70467240
0.18564019,0.70467240
0.18692019,0.70467240
0.18820019,0.61647390
0.18948019,0.61647390
0.19076019,0.61647390
0.19204019,0.70467240
0.19332019,0.70467240
0.19460019,0.70467240
0.19588019,0.70467240
0.19716019,0.70467240
0.19844019,0.61647390
0.19972019,0.70467240
0.20100019,0.70467240
0.20228019,0.70467240
0.20356019,0.61647390
0.20484019,0.70467240
0.20612019,0.70467240
0.20740019,0.61647390
0.20868019,0.70467240
0.20996019,0.70467240
0.21124019,0.61647390
0.21252019,0.61647390
0.21380019,0.61647390
0.21508019,0.61647390
0.21636019,0.61647390
0.21764019,0.61647390
0.21892019,0.61647390
0.22020019,0.61647390
0.22148019,0.61647390
0.22276019,0.61647390
0.22404019,0.52797020
0.22532019,0.52797020
0.22660019,0.43977170
0.22788019,0.43977170
0.22916019,0.35157320
0.23044019,0.35157320
0.23172019,0.26337470
0.23300019,0.26337470
0.23428019,0.26337470
0.23556019,0.17517620
0.23684019,0.17517620
0.23812019,0.08697775
0.23940019,-0.00122074
0.24068019,-0.00122074
0.24196019,-0.00122074
0.24324019,-0.08941923
0.24452019,-0.08941923
0.24580019,-0.17761770
0.24708019,-0.17761770
0.24836019,-0.26581620
0.24964019,-0.35401470
0.25092019,-0.35401470
0.25220019,-0.35401470
0.25348019,-0.35401470
0.25476019,-0.35401470
0.25604019,-0.44221320
0.25732019,-0.44221320
0.25860019,-0.44221320
0.25988019,-0.44221320
0.26116019,-0.44221320
0.26244019,-0.44221320
0.26372019,-0.44221320
0.26500019,-0.44221320
0.26628019,-0.44221320
0.26756019,-0.44221320
0.26884019,-0.44221320
0.27012019,-0.44221320
0.27140019,-0.44221320
0.27268019,-0.44221320
0.27396019,-0.44221320
0.27524019,-0.35401470
0.27652019,-0.35401470
0.27780019,-0.35401470
0.27908019,-0.35401470
0.28036019,-0.26581620
0.28164019,-0.26581620
0.28292019,-0.26581620
0.28420019,-0.17761770
0.28548019,-0.17761770
0.28676019,-0.08941923
0.28804019,-0.08941923
0.28932019,-0.08941923
0.29060019,-0.08941923
0.29188019,-0.00122074
0.29316019,0.08697775
0.29444019,0.08697775
0.29572019,0.08697775
0.29700019,0.08697775
0.29828019,0.17517620
0.29956019,0.17517620
0.30084019,0.17517620
0.30212019,0.26337470
0.30340019,0.26337470
0.30468019,0.26337470
0.30596019,0.35157320
0.30724019,0.35157320
0.30852019,0.35157320
0.30980019,0.35157320
0.31108019,0.35157320
0.31236019,0.35157320
0.31364019,0.35157320
0.31492019,0.35157320
0.31620019,0.43977170
0.31748019,0.35157320
0.31876019,0.35157320
0.32004019,0.43977170
0.32132019,0.35157320
0.32260019,0.35157320
0.32388019,0.35157320
0.32516019,0.35157320
0.32644019,0.35157320
0.32772019,0.35157320
0.32900019,0.35157320
0.33028019,0.26337470
0.33156019,0.26337470
0.33284019,0.26337470
0.33412019,0.26337470
0.33540019,0.26337470
0.33668019,0.26337470
0.33796019,0.26337470
0.33924019,0.17517620
0.34052019,0.17517620
0.34180019,0.08697775
0.34308019,0.08697775
0.34436019,0.08697775
0.34564019,-0.00122074
0.34692019,-0.00122074
0.34820019,-0.00122074
0.34948019,-0.00122074
0.35076019,-0.00122074
0.35204019,-0.08941923
0.35332019,-0.08941923
0.35460019,-0.08941923
0.35588019,-0.08941923
0.35716019,-0.08941923
0.35844019,-0.17761770
0.35972019,-0.17761770
0.36100019,-0.17761770
0.36228019,-0.26581620
0.36356019,-0.26581620
0.36484019,-0.26581620
0.36612019,-0.26581620
0.36740019,-0.26581620
0.36868019,-0.26581620
0.36996019,-0.26581620
0.37124019,-0.26581620
0.37252019,-0.35401470
0.37380019,-0.26581620
0.37508019,-0.26581620
0.37636019,-0.26581620
0.37764019,-0.26581620
0.37892019,-0.26581620
0.38020019,-0.26581620
0.38148019,-0.26581620
0.38276019,-0.17761770
0.38404019,-0.26581620
0.38532019,-0.17761770
0.38660019,-0.17761770
0.38788019,-0.17761770
0.38916019,-0.08941923
0.39044019,-0.08941923
0.39172019,-0.08941923
0.39300019,-0.08941923
0.39428019,-0.08941923
0.39556019,-0.08941923
0.39684019,-0.08941923
0.39812019,-0.00122074
0.39940019,-0.00122074
0.40068019,-0.00122074
0.40196019,0.08697775
0.40324019,0.08697775
0.40452019,0.08697775
0.40580019,0.08697775
0.40708019,0.17517620
0.40836019,0.08697775
0.40964019,0.17517620
0.41092019,0.17517620
0.41220019,0.17517620
0.41348019,0.26337470
0.41476019,0.26337470
0.41604019,0.26337470
0.41732019,0.26337470
0.41860019,0.26337470
0.41988019,0.26337470
0.42116019,0.26337470
0.42244019,0.26337470
0.42372019,0.26337470
0.42500019,0.26337470
0.42628019,0.26337470
0.42756019,0.26337470
0.42884019,0.26337470
0.43012019,0.26337470
0.43140019,0.26337470
0.43268019,0.26337470
0.43396019,0.26337470
0.43524019,0.17517620
0.43652019,0.17517620
0.43780019,0.17517620
0.43908019,0.17517620
0.44036019,0.17517620
0.44164019,0.08697775
0.44292019,0.17517620
0.44420019,0.17517620
0.44548019,0.17517620
0.44676019,0.08697775
0.44804019,0.08697775
0.44932019,0.08697775
0.45060019,0.08697775
0.45188019,-0.00122074
0.45316019,-0.00122074
0.45444019,-0.00122074
0.45572019,-0.00122074
0.45700019,-0.00122074
0.45828019,-0.00122074
0.45956019,-0.00122074
0.46084019,-0.08941923
0.46212019,-0.08941923
0.46340019,-0.08941923
0.46468019,-0.08941923
0.46596019,-0.08941923
0.46724019,-0.08941923
0.46852019,-0.08941923
0.46980019,-0.08941923
0.47108019,-0.08941923
0.47236019,-0.08941923
0.47364019,-0.08941923
0.47492019,-0.08941923
0.47620019,-0.08941923
0.47748019,-0.08941923
0.47876019,-0.08941923
0.48004019,-0.17761770
0.48132019,-0.08941923
0.48260019,-0.08941923
0.48388019,-0.08941923
0.48516019,-0.08941923
0.48644019,-0.08941923
0.48772019,-0.08941923
0.48900019,-0.08941923
0.49028019,-0.08941923
0.49156019,-0.08941923
0.49284019,-0.08941923
0.49412019,-0.08941923
0.49540019,-0.08941923
0.49668019,-0.08941923
0.49796019,-0.08941923
0.49924019,-0.08941923
0.50052019,-0.08941923
0.50180019,-0.08941923
0.50308019,-0.00122074
0.50436019,-0.00122074
0.50564019,-0.00122074
0.50692019,-0.00122074
0.50820019,-0.00122074
0.50948019,-0.00122074
0.51076019,-0.00122074
0.51204019,0.08697775
0.51332019,0.08697775
0.51460019,0.08697775
0.51588019,0.08697775
0.51716019,0.08697775
0.51844019,0.17517620
0.51972019,0.17517620
0.52100019,0.08697775
0.52228019,0.08697775
0.52356019,0.17517620
0.52484019,0.17517620
0.52612019,0.17517620
0.52740019,0.17517620
0.52868019,0.17517620
0.52996019,0.17517620
0.53124019,0.17517620
0.53252019,0.17517620
0.53380019,0.17517620
0.53508019,0.17517620
0.53636019,0.17517620
0.53764019,0.17517620
0.53892019,0.17517620
0.54020019,0.17517620
0.54148019,0.17517620
0.54276019,0.17517620
0.54404019,0.08697775
0.54532019,0.08697775
0.54660019,0.08697775
0.54788019,0.08697775
0.54916019,0.17517620
0.55044019,0.08697775
0.55172019,0.08697775
0.55300019,0.08697775
0.55428019,0.08697775
0.55556019,0.08697775
0.55684019,-0.00122074
0.55812019,-0.00122074
0.55940019,-0.00122074
0.56068019,-0.08941923
0.56196019,-0.00122074
0.56324019,-0.00122074
0.56452019,-0.00122074
0.56580019,-0.00122074
0.56708019,-0.00122074
0.56836019,-0.08941923
0.56964019,-0.00122074
0.57092019,-0.00122074
0.57220019,-0.00122074
0.57348019,-0.08941923
0.57476019,-0.08941923
0.57604019,-0.08941923
0.57732019,-0.08941923
0.57860019,-0.08941923
0.57988019,-0.08941923
0.58116019,-0.08941923
0.58244019,-0.08941923
0.58372019,-0.08941923
0.58500019,-0.08941923
0.58628019,-0.08941923
0.58756019,-0.08941923
0.58884019,-0.08941923
0.59012019,-0.08941923
0.59140019,-0.08941923
0.59268019,-0.08941923
0.59396019,-0.08941923
0.59524019,-0.08941923
0.59652019,-0.08941923
0.59780019,-0.08941923
0.59908019,-0.08941923
0.60036019,-0.08941923
0.60164019,-0.00122074
0.60292019,-0.08941923
0.60420019,-0.08941923
0.60548019,-0.00122074
0.60676019,-0.00122074
0.60804019,-0.00122074
0.60932019,-0.00122074
0.61060019,-0.00122074
0.61188019,-0.00122074
0.61316019,0.08697775
0.61444019,-0.00122074
0.61572019,-0.00122074
0.61700019,-0.00122074
0.61828019,-0.00122074
0.61956019,0.08697775
0.62084019,0.08697775
0.62212019,-0.00122074
0.62340019,-0.00122074
0.62468019,0.08697775
0.62596019,0.08697775
0.62724019,0.08697775
0.62852019,0.08697775
0.62980019,0.08697775
0.63108019,0.08697775
0.63236019,0.08697775
0.63364019,0.08697775
0.63492019,0.08697775
0.63620019,0.08697775
0.63748019,0.08697775
0.63876019,0.08697775
0.64004019,0.08697775
0.64132019,0.08697775
0.64260019,0.08697775
0.64388019,0.08697775
0.64516019,0.08697775
0.64644019,0.08697775
0.64772019,0.17517620
0.64900019,0.08697775
0.65028019,0.08697775
0.65156019,0.08697775
0.65284019,0.08697775
0.65412019,0.08697775
0.65540019,0.08697775
0.65668019,-0.00122074
0.65796019,-0.00122074
0.65924019,-0.00122074
0.66052019,0.08697775
0.66180019,0.08697775
0.66308019,-0.00122074
0.66436019,-0.00122074
0.66564019,-0.00122074
0.66692019,-0.00122074
0.66820019,-0.00122074
0.66948019,-0.00122074
0.67076019,-0.00122074
0.67204019,-0.00122074
0.67332019,-0.00122074
0.67460019,-0.00122074
0.67588019,-0.00122074
0.67716019,-0.00122074
0.67844019,-0.00122074
0.67972019,-0.00122074
0.68100019,-0.00122074
0.68228019,-0.08941923
0.68356019,-0.00122074
0.68484019,-0.08941923
0.68612019,-0.08941923
0.68740019,-0.08941923
0.68868019,-0.08941923
0.68996019,-0.08941923
0.69124019,-0.08941923
0.69252019,-0.00122074
0.69380019,-0.00122074
0.69508019,-0.08941923
0.69636019,-0.08941923
0.69764019,-0.00122074
0.69892019,-0.08941923
0.70020019,-0.00122074
0.70148019,-0.00122074
0.70276019,-0.00122074
0.70404019,-0.08941923
0.70532019,-0.00122074
0.70660019,-0.00122074
0.70788019,-0.08941923
0.70916019,-0.00122074
0.71044019,-0.00122074
0.71172019,-0.00122074
0.71300019,-0.00122074
0.71428019,-0.00122074
0.71556019,-0.00122074
0.71684019,-0.00122074
0.71812019,-0.00122074
0.71940019,-0.00122074
0.72068019,-0.00122074
0.72196019,-0.00122074
0.72324019,-0.00122074
0.72452019,-0.00122074
0.72580019,-0.00122074
0.72708019,0.08697775
0.72836019,-0.00122074
0.72964019,-0.00122074
0.73092019,0.08697775
0.73220019,0.08697775
0.73348019,0.08697775
0.73476019,0.08697775
0.73604019,0.08697775
0.73732019,0.08697775
0.73860019,0.08697775
0.73988019,0.08697775
0.74116019,0.08697775
0.74244019,0.08697775
0.74372019,0.08697775
0.74500019,0.08697775
0.74628019,0.08697775
0.74756019,0.08697775
0.74884019,0.08697775
0.75012019,-0.00122074
0.75140019,0.08697775
0.75268019,0.08697775
0.75396019,-0.00122074
0.75524019,-0.00122074
0.75652019,-0.00122074
0.75780019,-0.00122074
0.75908019,0.08697775
0.76036019,-0.00122074
0.76164019,0.08697775
0.76292019,-0.00122074
0.76420019,0.08697775
0.76548019,-0.00122074
0.76676019,-0.00122074
0.76804019,-0.00122074
0.76932019,-0.00122074
0.77060019,-0.00122074
0.77188019,0.08697775
0.77316019,-0.00122074
0.77444019,-0.00122074
0.77572019,-0.00122074
0.77700019,-0.00122074
0.77828019,-0.00122074
0.77956019,-0.00122074
0.78084019,-0.00122074
0.78212019,-0.00122074
0.78340019,-0.00122074
0.78468019,-0.00122074
0.78596019,-0.00122074
0.78724019,-0.00122074
0.78852019,-0.00122074
0.78980019,-0.00122074
0.79108019,-0.00122074
0.79236019,-0.08941923
0.79364019,-0.08941923
0.79492019,-0.00122074
0.79620019,-0.00122074
0.79748019,-0.00122074
0.79876019,-0.00122074
0.80004019,-0.00122074
0.80132019,-0.00122074
0.80260019,-0.00122074
0.80388019,-0.00122074
0.80516019,-0.00122074
0.80644019,-0.00122074
0.80772019,-0.08941923
0.80900019,-0.00122074
0.81028019,-0.00122074
0.81156019,-0.00122074
0.81284019,-0.08941923
0.81412019,-0.00122074
0.81540019,-0.00122074
0.81668019,-0.00122074
0.81796019,-0.00122074
0.81924019,-0.00122074
0.82052019,-0.00122074
0.82180019,-0.00122074
0.82308019,-0.00122074
0.82436019,-0.00122074
0.82564019,-0.00122074
0.82692019,-0.00122074
0.82820019,-0.00122074
0.82948019,-0.00122074
0.83076019,-0.00122074
0.83204019,-0.00122074
0.83332019,-0.00122074
0.83460019,-0.00122074
0.83588019,-0.00122074
0.83716019,-0.00122074
0.83844019,0.08697775
0.83972019,0.08697775
0.84100019,-0.00122074
0.84228019,0.08697775
0.84356019,-0.00122074
0.84484019,0.08697775
0.84612019,0.08697775
0.84740019,-0.00122074
0.84868019,-0.00122074
0.84996019,0.08697775
0.85124019,-0.00122074
0.85252019,-0.00122074
0.85380019,0.08697775
0.85508019,-0.00122074
0.85636019,0.08697775
0.85764019,0.08697775
0.85892019,0.08697775
0.86020019,0.08697775
0.86148019,-0.00122074
0.86276019,-0.00122074
0.86404019,-0.00122074
0.86532019,-0.00122074
0.86660019,0.08697775
0.86788019,0.08697775
0.86916019,-0.00122074
0.87044019,-0.00122074
0.87172019,-0.00122074
0.87300019,-0.00122074
0.87428019,-0.00122074
0.87556019,-0.00122074
0.87684019,-0.00122074
0.87812019,-0.00122074
0.87940019,-0.00122074
0.88068019,-0.00122074
0.88196019,-0.00122074
0.88324019,-0.00122074
0.88452019,-0.00122074
0.88580019,-0.00122074
0.88708019,-0.00122074
0.88836019,-0.00122074
0.88964019,-0.00122074
0.89092019,-0.00122074
0.89220019,-0.00122074
0.89348019,-0.00122074
0.89476019,-0.00122074
0.89604019,-0.00122074
0.89732019,-0.00122074
0.89860019,-0.00122074
0.89988019,-0.00122074
0.90116019,-0.00122074
0.90244019,-0.00122074
0.90372019,-0.00122074
0.90500019,-0.00122074
0.90628019,-0.00122074
0.90756019,-0.00122074
0.90884019,-0.00122074
0.91012019,-0.00122074
0.91140019,-0.00122074
0.91268019,-0.00122074
0.91396019,-0.00122074
0.91524019,-0.00122074
0.91652019,-0.00122074
0.91780019,-0.00122074
0.91908019,-0.00122074
0.92036019,-0.00122074
0.92164019,-0.00122074
0.92292019,-0.00122074
0.92420019,-0.00122074
0.92548019,-0.00122074
0.92676019,-0.00122074
0.92804019,-0.00122074
0.92932019,-0.00122074
0.93060019,-0.00122074
0.93188019,-0.00122074
0.93316019,-0.00122074
0.93444019,-0.00122074
0.93572019,-0.00122074
0.93700019,-0.00122074
0.93828019,-0.00122074
0.93956019,-0.08941923
0.94084019,-0.00122074
0.94212019,-0.00122074
0.94340019,0.08697775
0.94468019,-0.00122074
0.94596019,-0.00122074
0.94724019,-0.00122074
0.94852019,-0.00122074
0.94980019,0.08697775
0.95108019,-0.00122074
0.95236019,-0.00122074
0.95364019,0.08697775
0.95492019,0.08697775
0.95620019,0.08697775
0.95748019,-0.00122074
0.95876019,0.08697775
0.96004019,-0.00122074
0.96132019,-0.00122074
0.96260019,-0.00122074
0.96388019,0.08697775
0.96516019,-0.00122074
0.96644019,-0.00122074
0.96772019,-0.00122074
0.96900019,0.08697775
0.97028019,-0.00122074
0.97156019,-0.00122074
0.97284019,-0.00122074
0.97412019,-0.00122074
0.97540019,-0.00122074
0.97668019,-0.00122074
0.97796019,-0.00122074
0.97924019,-0.00122074
0.98052019,-0.00122074
0.98180019,0.08697775
0.98308019,-0.00122074
0.98436019,-0.00122074
0.98564019,-0.00122074
0.98692019,-0.00122074
0.98820019,-0.00122074
0.98948019,-0.00122074
0.99076019,-0.00122074
0.99204019,-0.00122074
0.99332019,-0.00122074
0.99460019,-0.00122074
0.99588019,-0.00122074
0.99716019,-0.00122074
0.99844019,-0.00122074
0.99972019,-0.00122074
1.00100019,-0.00122074
1.00228019,-0.00122074
1.00356019,-0.00122074
1.00484019,-0.00122074
1.00612019,-0.00122074
1.00740019,-0.00122074
1.00868019,-0.00122074
1.00996019,-0.00122074
1.01124019,-0.00122074
1.01252019,-0.00122074
1.01380019,-0.00122074
1.01508019,-0.00122074
1.01636019,-0.00122074
1.01764019,-0.00122074
1.01892019,-0.08941923
1.02020019,-0.00122074
1.02148019,-0.00122074
1.02276019,-0.00122074
1.02404019,-0.00122074
1.02532019,-0.00122074
1.02660019,-0.00122074
1.02788019,-0.00122074
1.02916019,-0.00122074
1.03044019,-0.00122074
1.03172019,-0.00122074
1.03300019,-0.00122074
1.03428019,-0.00122074
1.03556019,-0.00122074
1.03684019,-0.00122074
1.03812019,-0.00122074
1.03940019,-0.00122074
1.04068019,-0.00122074
1.04196019,-0.00122074
1.04324019,-0.00122074
1.04452019,-0.00122074
1.04580019,-0.00122074
1.04708019,-0.00122074
1.04836019,-0.00122074
1.04964019,-0.00122074
1.05092019,-0.00122074
1.05220019,-0.00122074
1.05348019,-0.00122074
1.05476019,-0.00122074
1.05604019,-0.00122074
1.05732019,-0.00122074
1.05860019,-0.00122074
1.05988019,-0.00122074
1.06116019,-0.00122074
1.06244019,-0.00122074
1.06372019,-0.00122074
1.06500019,-0.00122074
1.06628019,-0.00122074
1.06756019,0.08697775
1.06884019,-0.00122074
1.07012019,-0.00122074
1.07140019,-0.00122074
1.07268019,-0.00122074
1.07396019,-0.00122074
1.07524019,-0.00122074
1.07652019,-0.00122074
1.07780019,-0.00122074
1.07908019,-0.00122074
1.08036019,-0.00122074
1.08164019,-0.00122074
1.08292019,-0.00122074
1.08420019,-0.00122074
1.08548019,-0.00122074
1.08676019,-0.00122074
1.08804019,0.08697775
1.08932019,-0.00122074
1.09060019,-0.00122074
1.09188019,-0.00122074
1.09316019,-0.00122074
1.09444019,-0.00122074
1.09572019,-0.00122074
1.09700019,-0.00122074
1.09828019,-0.00122074
1.09956019,-0.00122074
1.10084019,-0.00122074
1.10212019,-0.00122074
1.10340019,-0.00122074
1.10468019,-0.00122074
1.10596019,-0.00122074
1.10724019,-0.00122074
1.10852019,-0.00122074
1.10980019,-0.00122074
1.11108019,-0.00122074
1.11236019,-0.00122074
1.11364019,-0.00122074
1.11492019,-0.00122074
1.11620019,-0.00122074
1.11748019,-0.00122074
1.11876019,-0.00122074
1.12004019,-0.00122074
1.12132019,-0.00122074
1.12260019,-0.00122074
1.12388019,-0.00122074
1.12516019,-0.00122074
1.12644019,-0.00122074
1.12772019,-0.00122074
1.12900019,-0.00122074
1.13028019,-0.00122074
1.13156019,-0.00122074
1.13284019,0.08697775
1.13412019,-0.00122074
1.13540019,-0.00122074
1.13668019,-0.00122074
1.13796019,-0.00122074
1.13924019,-0.00122074
1.14052019,-0.00122074
1.14180019,-0.00122074
1.14308019,-0.00122074
1.14436019,-0.00122074
1.14564019,-0.00122074
1.14692019,-0.00122074
1.14820019,-0.00122074
1.14948019,-0.00122074
1.15076019,-0.00122074
1.15204019,-0.00122074
1.15332019,-0.00122074
1.15460019,-0.00122074
1.15588019,-0.00122074
1.15716019,-0.00122074
1.15844019,-0.00122074
1.15972019,-0.00122074
1.16100019,-0.00122074
1.16228019,-0.00122074
1.16356019,-0.00122074
1.16484019,-0.00122074
1.16612019,-0.00122074
1.16740019,-0.00122074
1.16868019,-0.00122074
1.16996019,-0.00122074
1.17124019,-0.00122074
1.17252019,-0.00122074
1.17380019,-0.00122074
1.17508019,-0.00122074
1.17636019,-0.00122074
1.17764019,-0.00122074
1.17892019,-0.00122074
1.18020019,0.08697775
1.18148019,-0.00122074
1.18276019,-0.00122074
1.18404019,-0.00122074
1.18532019,-0.00122074
1.18660019,-0.00122074
1.18788019,-0.00122074
1.18916019,-0.00122074
1.19044019,-0.00122074
1.19172019,-0.00122074
1.19300019,-0.00122074
1.19428019,-0.00122074
1.19556019,-0.00122074
1.19684019,-0.00122074
1.19812019,-0.00122074
1.19940019,-0.00122074
1.20068019,-0.00122074
1.20196019,-0.00122074
1.20324019,-0.00122074
1.20452019,-0.00122074
1.20580019,-0.00122074
1.20708019,-0.00122074
1.20836019,-0.00122074
1.20964019,-0.00122074
1.21092019,-0.00122074
1.21220019,-0.00122074
1.21348019,-0.00122074
1.21476019,-0.00122074
1.21604019,-0.00122074
1.21732019,-0.00122074
1.21860019,-0.00122074
1.21988019,-0.00122074
1.22116019,-0.00122074
1.22244019,-0.00122074
1.22372019,-0.00122074
1.22500019,-0.00122074
1.22628019,-0.00122074
1.22756019,-0.00122074
1.22884019,-0.00122074
1.23012019,-0.00122074
1.23140019,-0.00122074
1.23268019,-0.00122074
1.23396019,-0.00122074
1.23524019,-0.00122074
1.23652019,-0.00122074
1.23780019,-0.00122074
1.23908019,-0.00122074
1.24036019,-0.00122074
1.24164019,-0.00122074
1.24292019,-0.00122074
1.24420019,-0.00122074
1.24548019,-0.00122074
1.24676019,-0.00122074
1.24804019,-0.00122074
1.24932019,-0.00122074
1.25060019,-0.00122074
1.25188019,-0.00122074
1.25316019,-0.00122074
1.25444019,0.08697775
1.25572019,-0.00122074
1.25700019,-0.08941923
1.25828019,-0.00122074
1.25956019,-0.00122074
1.26084019,-0.00122074
1.26212019,-0.00122074
1.26340019,-0.00122074
1.26468019,-0.00122074
1.26596019,-0.00122074
1.26724019,-0.00122074
1.26852019,-0.00122074
1.26980019,-0.00122074
1.27108019,-0.00122074
1.27236019,-0.00122074
1.27364019,-0.00122074
1.27492019,-0.00122074
1.27620019,-0.00122074
1.27748019,-0.00122074
1.27876019,-0.00122074
1.28004019,-0.00122074
1.28132019,-0.00122074
1.28260019,-0.00122074
1.28388019,-0.00122074
1.28516019,-0.00122074
1.28644019,-0.00122074
1.28772019,-0.00122074
1.28900019,-0.00122074
1.29028019,-0.00122074
1.29156019,0.08697775
1.29284019,-0.00122074
1.29412019,-0.00122074
1.29540019,-0.00122074
1.29668019,-0.00122074
1.29796019,-0.00122074
1.29924019,-0.00122074
1.30052019,-0.00122074
1.30180019,-0.00122074
1.30308019,-0.00122074
1.30436019,-0.00122074
1.30564019,-0.00122074
1.30692019,-0.00122074
1.30820019,-0.00122074
1.30948019,-0.00122074
1.31076019,-0.00122074
1.31204019,-0.00122074
1.31332019,-0.00122074
1.31460019,-0.00122074
1.31588019,-0.00122074
1.31716019,-0.00122074
1.31844019,-0.00122074
1.31972019,-0.00122074
1.32100019,-0.00122074
1.32228019,0.08697775
1.32356019,-0.00122074
1.32484019,-0.00122074
1.32612019,0.08697775
1.32740019,-0.00122074
1.32868019,-0.00122074
1.32996019,-0.00122074
1.33124019,-0.00122074
1.33252019,-0.00122074
1.33380019,-0.00122074
1.33508019,-0.00122074
1.33636019,-0.00122074
1.33764019,-0.00122074
1.33892019,-0.00122074
1.34020019,-0.08941923
1.34148019,-0.00122074
1.34276019,-0.00122074
1.34404019,-0.00122074
1.34532019,-0.00122074
1.34660019,-0.00122074
1.34788019,-0.00122074
1.34916019,-0.00122074
1.35044019,-0.00122074
1.35172019,-0.00122074
1.35300019,-0.00122074
1.35428019,-0.00122074
1.35556019,-0.00122074
1.35684019,-0.00122074
1.35812019,0.08697775
1.35940019,-0.00122074
1.36068019,-0.00122074
1.36196019,-0.00122074
1.36324019,-0.00122074
1.36452019,-0.00122074
1.36580019,-0.00122074
1.36708019,-0.00122074
1.36836019,-0.00122074
1.36964019,-0.00122074
1.37092019,-0.00122074
1.37220019,-0.00122074
1.37348019,-0.00122074
1.37476019,-0.00122074
1.37604019,-0.00122074
1.37732019,-0.00122074
1.37860019,-0.00122074
1.37988019,-0.00122074
1.38116019,-0.00122074
1.38244019,-0.00122074
1.38372019,-0.00122074
1.38500019,-0.00122074
1.38628019,-0.00122074
1.38756019,-0.00122074
1.38884019,-0.00122074
1.39012019,-0.00122074
1.39140019,-0.00122074
1.39268019,-0.00122074
1.39396019,-0.00122074
1.39524019,-0.00122074
1.39652019,-0.00122074
1.39780019,-0.00122074
1.39908019,-0.00122074
1.40036019,-0.00122074
1.40164019,-0.00122074
1.40292019,-0.00122074
1.40420019,-0.00122074
1.40548019,-0.00122074
1.40676019,-0.00122074
1.40804019,-0.00122074
1.40932019,-0.00122074
1.41060019,-0.00122074
1.41188019,-0.00122074
1.41316019,-0.00122074
1.41444019,-0.00122074
1.41572019,-0.00122074
1.41700019,-0.00122074
1.41828019,-0.00122074
1.41956019,-0.00122074
1.42084019,-0.00122074
1.42212019,-0.00122074
1.42340019,-0.00122074
1.42468019,-0.00122074
1.42596019,-0.00122074
1.42724019,-0.00122074
1.42852019,-0.00122074
1.42980019,-0.00122074
1.43108019,-0.00122074
1.43236019,-0.00122074
1.43364019,-0.00122074
1.43492019,-0.00122074
1.43620019,-0.00122074
1.43748019,-0.00122074
1.43876019,-0.00122074
1.44004019,-0.00122074
1.44132019,-0.00122074
1.44260019,-0.00122074
1.44388019,-0.00122074
1.44516019,-0.00122074
1.44644019,-0.08941923
1.44772019,0.08697775
1.44900019,-0.00122074
1.45028019,-0.00122074
1.45156019,-0.00122074
1.45284019,-0.00122074
1.45412019,-0.00122074
1.45540019,-0.00122074
1.45668019,-0.00122074
1.45796019,-0.00122074
1.45924019,-0.00122074
1.46052019,-0.00122074
1.46180019,-0.00122074
1.46308019,-0.00122074
1.46436019,-0.00122074
1.46564019,-0.00122074
1.46692019,-0.00122074
1.46820019,-0.00122074
1.46948019,-0.00122074
1.47076019,-0.00122074
1.47204019,-0.00122074
1.47332019,-0.00122074
1.47460019,-0.00122074
1.47588019,-0.00122074
1.47716019,-0.00122074
1.47844019,-0.00122074
1.47972019,-0.00122074
1.48100019,-0.00122074
1.48228019,-0.00122074
1.48356019,-0.00122074
1.48484019,-0.00122074
1.48612019,-0.00122074
1.48740019,-0.00122074
1.48868019,-0.00122074
1.48996019,-0.00122074
1.49124019,-0.00122074
1.49252019,-0.00122074
1.49380019,-0.00122074
1.49508019,-0.00122074
1.49636019,-0.00122074
1.49764019,-0.00122074
1.49892019,-0.00122074
1.50020019,-0.00122074
1.50148019,-0.00122074
1.50276019,-0.00122074
1.50404019,-0.00122074
1.50532019,-0.00122074
1.50660019,-0.00122074
1.50788019,-0.00122074
1.50916019,-0.08941923
1.51044019,-0.00122074
1.51172019,-0.00122074
1.51300019,-0.00122074
1.51428019,-0.00122074
1.51556019,-0.00122074
1.51684019,-0.00122074
1.51812019,-0.00122074
1.51940019,-0.00122074
1.52068019,-0.00122074
1.52196019,-0.00122074
1.52324019,-0.00122074
1.52452019,-0.00122074
1.52580019,-0.00122074
1.52708019,-0.00122074
1.52836019,-0.00122074
1.52964019,-0.00122074
1.53092019,-0.00122074
1.53220019,-0.00122074
1.53348019,-0.00122074
1.53476019,-0.00122074
1.53604019,-0.00122074
1.53732019,-0.00122074
1.53860019,-0.00122074
1.53988019,-0.00122074
1.54116019,0.08697775
1.54244019,-0.00122074
1.54372019,-0.00122074
1.54500019,-0.00122074
1.54628019,-0.00122074
1.54756019,-0.00122074
1.54884019,-0.00122074
1.55012019,-0.00122074
1.55140019,-0.00122074
1.55268019,0.08697775
1.55396019,-0.00122074
1.55524019,-0.00122074
1.55652019,-0.00122074
1.55780019,-0.00122074
1.55908019,-0.00122074
1.56036019,-0.00122074
1.56164019,-0.00122074
1.56292019,-0.00122074
1.56420019,-0.00122074
1.56548019,-0.00122074
1.56676019,-0.00122074
1.56804019,-0.00122074
1.56932019,-0.00122074
1.57060019,-0.00122074
1.57188018,-0.00122074
1.57316018,-0.00122074
1.57444018,-0.00122074
1.57572018,0.08697775
1.57700018,-0.00122074
1.57828018,-0.00122074
1.57956018,-0.00122074
1.58084018,-0.00122074
1.58212018,-0.00122074
1.58340018,-0.00122074
1.58468018,-0.00122074
1.58596018,-0.00122074
1.58724018,-0.00122074
1.58852018,-0.00122074
1.58980018,-0.00122074
1.59108018,-0.00122074
1.59236018,-0.00122074
1.59364018,-0.00122074
1.59492018,-0.00122074
1.59620018,-0.00122074
1.59748018,-0.00122074
1.59876018,-0.00122074
1.60004018,-0.00122074
1.60132018,-0.00122074
1.60260018,-0.00122074
1.60388018,-0.00122074
1.60516018,-0.00122074
1.60644018,-0.00122074
1.60772018,-0.00122074
1.60900018,-0.00122074
1.61028018,-0.00122074
1.61156018,-0.00122074
1.61284018,-0.00122074
1.61412018,-0.00122074
1.61540018,-0.00122074
1.61668018,-0.00122074
1.61796018,-0.00122074
1.61924018,-0.00122074
1.62052018,-0.00122074
1.62180018,-0.00122074
1.62308018,-0.00122074
1.62436018,-0.00122074
1.62564018,0.08697775
1.62692018,-0.00122074
1.62820018,-0.00122074
1.62948018,-0.00122074
1.63076018,-0.00122074
1.63204018,-0.00122074
1.63332018,-0.00122074
1.63460018,-0.00122074
1.63588018,-0.08941923
1.63716018,-0.00122074
1.63844018,-0.00122074
1.63972018,-0.00122074
1.64100018,-0.00122074
1.64228018,-0.00122074
1.64356018,-0.00122074
1.64484018,-0.00122074
1.64612018,-0.00122074
1.64740018,-0.00122074
1.64868018,-0.00122074
1.64996018,-0.00122074
1.65124018,-0.00122074
1.65252018,-0.00122074
1.65380018,-0.00122074
1.65508018,-0.00122074
1.65636018,-0.00122074
1.65764018,-0.00122074
1.65892018,-0.00122074
1.66020018,-0.00122074
1.66148018,-0.00122074
1.66276018,-0.00122074
1.66404018,-0.00122074
1.66532018,-0.00122074
1.66660018,-0.00122074
1.66788018,-0.00122074
1.66916018,-0.00122074
1.67044018,-0.00122074
1.67172018,-0.00122074
1.67300018,-0.00122074
1.67428018,-0.00122074
1.67556018,-0.00122074
1.67684018,-0.00122074
1.67812018,-0.00122074
1.67940018,-0.00122074
1.68068018,-0.00122074
1.68196018,-0.00122074
1.68324018,-0.00122074
1.68452018,-0.00122074
1.68580018,-0.00122074
1.68708018,-0.00122074
1.68836018,0.08697775
1.68964018,-0.00122074
1.69092018,-0.00122074
1.69220018,-0.00122074
1.69348018,-0.00122074
1.69476018,-0.00122074
1.69604018,-0.00122074
1.69732018,-0.00122074
1.69860018,-0.00122074
1.69988018,-0.00122074
1.70116018,-0.00122074
1.70244018,-0.00122074
1.70372018,-0.00122074
1.70500018,-0.00122074
1.70628018,-0.00122074
1.70756018,-0.00122074
1.70884018,-0.00122074
1.71012018,-0.00122074
1.71140018,-0.00122074
1.71268018,-0.00122074
1.71396018,-0.00122074
1.71524018,-0.00122074
1.71652018,-0.00122074
1.71780018,-0.00122074
1.71908018,-0.00122074
1.72036018,-0.00122074
1.72164018,-0.00122074
1.72292018,-0.00122074
1.72420018,-0.00122074
1.72548018,-0.00122074
1.72676018,-0.00122074
1.72804018,-0.00122074
1.72932018,-0.00122074
1.73060018,-0.00122074
1.73188018,-0.00122074
1.73316018,-0.00122074
1.73444018,-0.00122074
1.73572018,-0.00122074
1.73700018,-0.00122074
1.73828018,-0.00122074
1.73956018,-0.00122074
1.74084018,-0.00122074
1.74212018,-0.00122074
1.74340018,-0.00122074
1.74468018,-0.00122074
1.74596018,-0.00122074
1.74724018,-0.00122074
1.74852018,-0.00122074
1.74980018,-0.00122074
1.75108018,-0.00122074
1.75236018,-0.00122074
1.75364018,-0.00122074
1.75492018,-0.00122074
1.75620018,-0.00122074
1.75748018,-0.00122074
1.75876018,-0.00122074
1.76004018,-0.00122074
1.76132018,-0.00122074
1.76260018,-0.08941923
1.76388018,-0.00122074
1.76516018,0.08697775
1.76644018,-0.00122074
1.76772018,-0.00122074
1.76900018,-0.00122074
1.77028018,-0.00122074
1.77156018,-0.00122074
1.77284018,-0.00122074
1.77412018,-0.00122074
1.77540018,-0.00122074
1.77668018,-0.00122074
1.77796018,-0.00122074
1.77924018,-0.00122074
1.78052018,-0.00122074
1.78180018,-0.00122074
1.78308018,-0.00122074
1.78436018,-0.00122074
1.78564018,-0.00122074
1.78692018,-0.00122074
1.78820018,-0.00122074
1.78948018,-0.00122074
1.79076018,-0.00122074
1.79204018,-0.00122074
1.79332018,-0.00122074
1.79460018,-0.00122074
1.79588018,-0.00122074
1.79716018,-0.00122074
1.79844018,-0.00122074
1.79972018,-0.00122074
1.80100018,-0.00122074
1.80228018,-0.00122074
1.80356018,-0.00122074
1.80484018,-0.00122074
1.80612018,-0.00122074
1.80740018,-0.00122074
1.80868018,-0.00122074
1.80996018,-0.00122074
1.81124018,-0.00122074
1.81252018,-0.00122074
1.81380018,-0.00122074
1.81508018,-0.00122074
1.81636018,-0.00122074
1.81764018,-0.00122074
1.81892018,-0.00122074
1.82020018,-0.00122074
1.82148018,-0.00122074
1.82276018,-0.00122074
1.82404018,-0.00122074
1.82532018,-0.08941923
1.82660018,-0.00122074
1.82788018,0.08697775
1.82916018,-0.00122074
1.83044018,-0.00122074
1.83172018,-0.00122074
1.83300018,-0.00122074
1.83428018,-0.00122074
1.83556018,-0.00122074
1.83684018,-0.00122074
1.83812018,-0.00122074
1.83940018,-0.00122074
1.84068018,-0.00122074
1.84196018,-0.00122074
1.84324018,-0.00122074
1.84452018,-0.00122074
1.84580018,-0.00122074
1.84708018,-0.00122074
1.84836018,-0.00122074
1.84964018,-0.00122074
1.85092018,-0.00122074
1.85220018,-0.00122074
1.85348018,-0.00122074
1.85476018,-0.00122074
1.85604018,-0.00122074
1.85732018,-0.00122074
1.85860018,-0.00122074
1.85988018,-0.00122074
1.86116018,-0.00122074
1.86244018,-0.00122074
1.86372018,-0.00122074
1.86500018,-0.00122074
1.86628018,-0.00122074
1.86756018,-0.00122074
1.86884018,-0.00122074
1.87012018,-0.00122074
1.87140018,-0.00122074
1.87268018,-0.00122074
1.87396018,-0.00122074
1.87524018,-0.00122074
1.87652018,-0.00122074
1.87780018,-0.00122074
1.87908018,-0.00122074
1.88036018,-0.00122074
1.88164018,-0.00122074
1.88292018,-0.00122074
1.88420018,-0.00122074
1.88548018,-0.00122074
1.88676018,-0.00122074
1.88804018,-0.00122074
1.88932018,-0.00122074
1.89060018,-0.00122074
1.89188018,-0.00122074
1.89316018,-0.00122074
1.89444018,-0.00122074
1.89572018,-0.00122074
1.89700018,-0.00122074
1.89828018,0.08697775
1.89956018,-0.00122074
1.90084018,-0.00122074
1.90212018,-0.00122074
1.90340018,-0.00122074
1.90468018,-0.00122074
1.90596018,-0.00122074
1.90724018,-0.00122074
1.90852018,-0.00122074
1.90980018,-0.00122074
1.91108018,-0.00122074
1.91236018,-0.00122074
1.91364018,-0.00122074
1.91492018,-0.00122074
1.91620018,-0.00122074
1.91748018,-0.00122074
1.91876018,-0.00122074
1.92004018,-0.00122074
1.92132018,-0.00122074
1.92260018,-0.00122074
1.92388018,-0.00122074
1.92516018,-0.00122074
1.92644018,-0.00122074
1.92772018,-0.00122074
1.92900018,-0.00122074
1.93028018,-0.00122074
1.93156018,-0.00122074
1.93284018,-0.00122074
1.93412018,-0.00122074
1.93540018,-0.00122074
1.93668018,-0.00122074
1.93796018,-0.00122074
1.93924018,-0.00122074
1.94052018,-0.00122074
1.94180018,-0.00122074
1.94308018,-0.00122074
1.94436018,-0.00122074
1.94564018,-0.00122074
1.94692018,-0.00122074
1.94820018,-0.00122074
1.94948018,-0.00122074
1.95076018,-0.00122074
1.95204018,-0.00122074
1.95332018,-0.00122074
1.95460018,-0.00122074
1.95588018,-0.00122074
1.95716018,-0.00122074
1.95844018,-0.00122074
1.95972018,-0.00122074
1.96100018,-0.00122074
1.96228018,-0.00122074
1.96356018,-0.00122074
1.96484018,-0.00122074
1.96612018,-0.00122074
1.96740018,-0.00122074
1.96868018,-0.00122074
1.96996018,-0.00122074
1.97124018,-0.00122074
1.97252018,-0.00122074
1.97380018,-0.00122074
1.97508018,-0.00122074
1.97636018,-0.00122074
1.97764018,-0.00122074
1.97892018,-0.00122074
1.98020018,-0.00122074
1.98148018,-0.00122074
1.98276018,-0.00122074
1.98404018,-0.00122074
1.98532018,-0.00122074
1.98660018,-0.00122074
1.98788018,-0.00122074
1.98916018,-0.00122074
1.99044018,-0.00122074
1.99172018,-0.00122074
1.99300018,-0.00122074
1.99428018,-0.00122074
1.99556018,-0.00122074
1.99684018,-0.00122074
1.99812018,-0.00122074
1.99940018,-0.00122074
2.00068018,-0.00122074
2.00196018,-0.00122074
2.00324018,-0.00122074
2.00452018,-0.00122074
2.00580018,-0.00122074
2.00708018,-0.00122074
2.00836018,-0.00122074
2.00964018,-0.00122074
2.01092018,-0.00122074
2.01220018,-0.08941923
2.01348018,-0.00122074
2.01476018,-0.00122074
2.01604018,-0.00122074
2.01732018,-0.00122074
2.01860018,-0.00122074
2.01988018,-0.00122074
2.02116018,-0.00122074
2.02244018,-0.00122074
2.02372018,0.08697775
2.02500018,-0.00122074
2.02628018,-0.00122074
2.02756018,-0.00122074
2.02884018,-0.00122074
2.03012018,-0.00122074
2.03140018,-0.00122074
2.03268018,-0.00122074
2.03396018,-0.00122074
2.03524018,-0.00122074
2.03652018,-0.00122074
2.03780018,-0.00122074
2.03908018,-0.00122074
2.04036018,-0.00122074
2.04164018,-0.00122074
2.04292018,-0.00122074
2.04420018,-0.00122074
2.04548018,-0.00122074
2.04676018,-0.00122074
2.04804018,-0.00122074
2.04932018,-0.00122074
2.05060018,-0.00122074
2.05188018,-0.00122074
2.05316018,-0.00122074
2.05444018,-0.00122074
2.05572018,-0.00122074
2.05700018,-0.00122074
2.05828018,-0.00122074
2.05956018,-0.00122074
2.06084018,-0.00122074
2.06212018,-0.00122074
2.06340018,-0.00122074
2.06468018,-0.00122074
2.06596018,-0.00122074
2.06724018,-0.00122074
2.06852018,-0.00122074
2.06980018,-0.00122074
2.07108018,-0.00122074
2.07236018,-0.00122074
2.07364018,-0.00122074
2.07492018,-0.00122074
2.07620018,-0.00122074
2.07748018,-0.00122074
2.07876018,-0.00122074
2.08004018,-0.00122074
2.08132018,-0.00122074
2.08260018,-0.00122074
2.08388018,-0.00122074
2.08516018,-0.00122074
2.08644018,-0.00122074
2.08772018,-0.00122074
2.08900018,-0.00122074
2.09028018,-0.00122074
2.09156018,-0.00122074
2.09284018,-0.00122074
2.09412018,-0.00122074
2.09540018,-0.00122074
2.09668018,-0.00122074
2.09796018,-0.00122074
2.09924018,-0.00122074
2.10052018,-0.00122074
2.10180018,-0.00122074
2.10308018,-0.00122074
2.10436018,-0.00122074
2.10564018,-0.00122074
2.10692018,-0.00122074
2.10820018,-0.00122074
2.10948018,-0.00122074
2.11076018,-0.00122074
2.11204018,-0.00122074
2.11332018,-0.00122074
2.11460018,-0.00122074
2.11588018,-0.00122074
2.11716018,-0.00122074
2.11844018,-0.00122074
2.11972018,-0.00122074
2.12100018,-0.00122074
2.12228018,-0.00122074
2.12356018,-0.00122074
2.12484018,-0.00122074
2.12612018,-0.00122074
2.12740018,-0.00122074
2.12868018,-0.00122074
2.12996018,-0.00122074
2.13124018,-0.00122074
2.13252018,-0.00122074
2.13380018,-0.00122074
2.13508018,-0.00122074
2.13636018,-0.00122074
2.13764018,-0.00122074
2.13892018,-0.00122074
2.14020018,-0.00122074
2.14148018,-0.00122074
2.14276018,-0.00122074
2.14404018,-0.00122074
2.14532018,0.08697775
2.14660018,-0.00122074
2.14788018,-0.00122074
2.14916018,-0.00122074
2.15044018,-0.00122074
2.15172018,-0.00122074
2.15300018,-0.00122074
2.15428018,-0.00122074
2.15556018,-0.00122074
2.15684018,-0.00122074
2.15812018,-0.00122074
2.15940018,-0.00122074
2.16068018,-0.00122074
2.16196018,-0.00122074
2.16324018,-0.00122074
2.16452018,-0.00122074
2.16580018,-0.00122074
2.16708018,-0.00122074
2.16836018,-0.00122074
2.16964018,-0.00122074
2.17092018,-0.00122074
2.17220018,-0.00122074
2.17348018,-0.00122074
2.17476018,-0.00122074
2.17604018,-0.00122074
2.17732018,-0.00122074
2.17860018,-0.00122074
2.17988018,-0.00122074
2.18116018,-0.00122074
2.18244018,-0.00122074
2.18372018,-0.00122074
2.18500018,-0.00122074
2.18628018,-0.00122074
2.18756018,-0.00122074
2.18884018,-0.00122074
2.19012018,-0.00122074
2.19140018,-0.00122074
2.19268018,-0.00122074
2.19396018,-0.00122074
2.19524018,-0.00122074
2.19652018,-0.00122074
2.19780018,-0.00122074
2.19908018,-0.00122074
2.20036018,-0.00122074
2.20164018,-0.00122074
2.20292018,-0.00122074
2.20420018,-0.00122074
2.20548018,-0.00122074
2.20676018,-0.00122074
2.20804018,-0.00122074
2.20932018,-0.00122074
2.21060018,-0.00122074
2.21188018,-0.00122074
2.21316018,-0.00122074
2.21444018,-0.00122074
2.21572018,-0.00122074
2.21700018,-0.00122074
2.21828018,-0.00122074
2.21956018,-0.00122074
2.22084018,-0.00122074
2.22212018,-0.00122074
2.22340018,-0.00122074
2.22468018,-0.00122074
2.22596018,-0.00122074
2.22724018,-0.00122074
2.22852018,-0.00122074
2.22980018,-0.00122074
2.23108018,-0.00122074
2.23236018,-0.00122074
2.23364018,-0.00122074
2.23492018,-0.00122074
2.23620018,-0.00122074
2.23748018,-0.00122074
2.23876018,-0.00122074
2.24004018,-0.00122074
2.24132018,0.08697775
2.24260018,-0.00122074
2.24388018,-0.00122074
2.24516018,-0.00122074
2.24644018,-0.00122074
2.24772018,-0.00122074
2.24900018,-0.00122074
2.25028018,-0.00122074
2.25156018,-0.00122074
2.25284018,-0.00122074
2.25412018,-0.00122074
2.25540018,-0.00122074
2.25668018,-0.00122074
2.25796018,-0.00122074
2.25924018,-0.00122074
2.26052018,0.08697775
2.26180018,-0.00122074
2.26308018,-0.00122074
2.26436018,-0.00122074
2.26564018,-0.00122074
2.26692018,-0.00122074
2.26820018,0.08697775
2.26948018,-0.00122074
2.27076018,-0.00122074
2.27204018,-0.00122074
2.27332018,-0.00122074
2.27460018,-0.00122074
2.27588018,-0.00122074
2.27716018,-0.00122074
2.27844018,-0.00122074
2.27972018,-0.00122074
2.28100018,-0.00122074
2.28228018,-0.00122074
2.28356018,-0.00122074
2.28484018,-0.00122074
2.28612018,-0.00122074
2.28740018,-0.00122074
2.28868018,-0.00122074
2.28996018,-0.00122074
2.29124018,-0.00122074
2.29252018,-0.00122074
2.29380018,-0.00122074
2.29508018,-0.00122074
2.29636018,-0.00122074
2.29764018,-0.00122074
2.29892018,-0.00122074
2.30020018,-0.00122074
2.30148018,-0.00122074
2.30276018,-0.00122074
2.30404018,-0.00122074
2.30532018,-0.00122074
2.30660018,-0.00122074
2.30788018,-0.00122074
2.30916018,-0.00122074
2.31044018,-0.00122074
2.31172018,-0.00122074
2.31300018,-0.00122074
2.31428018,-0.00122074
2.31556018,-0.00122074
2.31684018,-0.00122074
2.31812018,-0.00122074
2.31940018,-0.00122074
2.32068018,-0.00122074
2.32196018,-0.00122074
2.32324018,-0.00122074
2.32452018,-0.00122074
2.32580018,-0.00122074
2.32708018,-0.00122074
2.32836018,-0.00122074
2.32964018,-0.00122074
2.33092018,-0.00122074
2.33220018,-0.00122074
2.33348018,-0.00122074
2.33476018,-0.00122074
2.33604018,-0.00122074
2.33732018,-0.00122074
2.33860018,-0.00122074
2.33988018,-0.00122074
2.34116018,-0.00122074
2.34244018,-0.00122074
2.34372018,-0.00122074
2.34500018,-0.00122074
2.34628018,-0.00122074
2.34756018,-0.00122074
2.34884018,-0.00122074
2.35012018,-0.00122074
2.35140018,-0.00122074
2.35268018,-0.00122074
2.35396018,-0.00122074
2.35524018,-0.00122074
2.35652018,-0.00122074
2.35780018,-0.00122074
2.35908018,-0.00122074
2.36036018,-0.00122074
2.36164018,-0.00122074
2.36292018,-0.00122074
2.36420018,-0.00122074
2.36548018,-0.00122074
2.36676018,-0.00122074
2.36804018,-0.00122074
2.36932018,-0.00122074
2.37060018,-0.00122074
2.37188018,-0.00122074
2.37316018,-0.00122074
2.37444018,-0.00122074
2.37572018,-0.00122074
2.37700018,-0.00122074
2.37828018,-0.00122074
2.37956018,-0.00122074
2.38084018,-0.00122074
2.38212018,-0.00122074
2.38340018,-0.00122074
2.38468018,-0.00122074
2.38596018,-0.00122074
2.38724018,-0.00122074
2.38852018,-0.00122074
2.38980018,-0.00122074
2.39108018,-0.00122074
2.39236018,-0.00122074
2.39364018,-0.00122074
2.39492018,-0.00122074
2.39620018,-0.00122074
2.39748018,-0.00122074
2.39876018,-0.00122074
2.40004018,-0.00122074
2.40132018,-0.00122074
2.40260018,-0.00122074
2.40388018,-0.00122074
2.40516018,-0.00122074
2.40644018,-0.00122074
2.40772018,-0.00122074
2.40900018,-0.00122074
2.41028018,-0.00122074
2.41156018,-0.00122074
2.41284018,-0.00122074
2.41412018,-0.00122074
2.41540018,-0.00122074
2.41668018,-0.00122074
2.41796018,-0.00122074
2.41924018,-0.00122074
2.42052018,-0.00122074
2.42180018,-0.00122074
2.42308018,-0.00122074
2.42436018,-0.00122074
2.42564018,-0.00122074
2.42692018,-0.00122074
2.42820018,-0.00122074
2.42948018,-0.00122074
2.43076018,-0.00122074
2.43204018,-0.00122074
2.43332018,-0.00122074
2.43460018,-0.00122074
2.43588018,-0.00122074
2.43716018,-0.00122074
2.43844018,-0.00122074
2.43972018,-0.00122074
2.44100018,-0.00122074
2.44228018,-0.00122074
2.44356018,-0.00122074
2.44484018,0.08697775
2.44612018,-0.00122074
2.44740018,-0.00122074
2.44868018,-0.00122074
2.44996018,-0.00122074
2.45124018,-0.00122074
2.45252018,-0.00122074
2.45380018,-0.00122074
2.45508018,-0.00122074
2.45636018,-0.00122074
2.45764018,-0.00122074
2.45892018,-0.00122074
2.46020018,-0.00122074
2.46148018,0.08697775
2.46276018,-0.00122074
2.46404018,-0.00122074
2.46532018,-0.00122074
2.46660018,-0.00122074
2.46788018,-0.00122074
2.46916018,-0.00122074
2.47044018,-0.00122074
2.47172018,-0.00122074
2.47300018,-0.00122074
2.47428018,-0.00122074
2.47556018,-0.00122074
2.47684018,-0.00122074
2.47812018,-0.00122074
2.47940018,-0.00122074
2.48068018,-0.00122074
2.48196018,-0.00122074
2.48324018,-0.00122074
2.48452018,-0.00122074
2.48580018,-0.00122074
2.48708018,-0.00122074
2.48836018,0.08697775
2.48964018,-0.00122074
2.49092018,-0.00122074
2.49220018,-0.00122074
2.49348018,-0.00122074
2.49476018,-0.00122074
2.49604018,-0.00122074
2.49732018,-0.00122074
2.49860018,-0.00122074
2.49988018,-0.00122074
2.50116018,-0.00122074
2.50244018,-0.00122074
2.50372018,-0.00122074
2.50500018,-0.00122074
2.50628018,-0.00122074
2.50756018,-0.00122074
2.50884018,-0.00122074
2.51012018,-0.00122074
2.51140018,-0.00122074
2.51268018,-0.00122074
2.51396018,-0.00122074
2.51524018,-0.00122074
2.51652018,-0.00122074
2.51780018,-0.00122074
2.51908018,-0.00122074
2.52036018,-0.00122074
2.52164018,-0.00122074
2.52292018,-0.00122074
2.52420018,-0.00122074
2.52548018,-0.00122074
2.52676018,-0.00122074
2.52804018,-0.00122074
2.52932018,-0.00122074
2.53060018,-0.00122074
2.53188018,-0.00122074
2.53316018,-0.00122074
2.53444018,-0.00122074
2.53572018,-0.00122074
2.53700018,-0.00122074
2.53828018,-0.00122074
2.53956018,-0.00122074
2.54084018,-0.00122074
2.54212018,-0.00122074
2.54340018,-0.00122074
2.54468018,-0.00122074
2.54596018,-0.00122074
2.54724018,-0.00122074
2.54852018,-0.00122074
2.54980018,-0.00122074
2.55108018,-0.00122074
2.55236018,-0.00122074
2.55364018,-0.00122074
2.55492018,-0.00122074
2.55620018,-0.00122074
2.55748018,-0.00122074
2.55876018,-0.00122074
2.56004018,-0.00122074
2.56132018,-0.00122074
2.56260018,-0.00122074
2.56388018,-0.00122074
2.56516018,-0.00122074
2.56644018,-0.00122074
2.56772018,-0.00122074
2.56900018,-0.00122074
2.57028018,-0.00122074
2.57156018,-0.00122074
2.57284018,-0.00122074
2.57412018,-0.00122074
2.57540018,-0.00122074
2.57668018,-0.00122074
2.57796018,-0.00122074
2.57924018,-0.00122074
2.58052018,-0.00122074
2.58180018,-0.00122074
2.58308018,-0.00122074
2.58436018,-0.00122074
2.58564018,-0.00122074
2.58692018,-0.00122074
2.58820018,-0.00122074
2.58948018,-0.00122074
2.59076018,-0.00122074
2.59204018,-0.00122074
2.59332018,-0.00122074
2.59460018,-0.00122074
2.59588018,-0.00122074
2.59716018,-0.00122074
2.59844018,-0.00122074
2.59972018,-0.00122074
2.60100018,-0.00122074
2.60228018,-0.00122074
2.60356018,-0.00122074
2.60484018,-0.00122074
2.60612018,-0.00122074
2.60740018,-0.00122074
2.60868018,-0.00122074
2.60996018,-0.00122074
2.61124018,-0.00122074
2.61252018,-0.00122074
2.61380018,-0.00122074
2.61508018,-0.00122074
2.61636018,-0.00122074
2.61764018,-0.00122074
2.61892018,-0.00122074
2.62020018,-0.00122074
2.62148018,-0.00122074
2.62276018,-0.00122074
2.62404018,-0.00122074
2.62532018,-0.00122074
2.62660018,-0.00122074
2.62788018,-0.00122074
2.62916018,-0.00122074
2.63044018,-0.00122074
2.63172018,-0.00122074
2.63300018,-0.00122074
2.63428018,-0.00122074
2.63556018,-0.00122074
2.63684018,-0.00122074
2.63812018,-0.00122074
2.63940018,-0.00122074
2.64068018,-0.00122074
2.64196018,-0.00122074
2.64324018,-0.00122074
2.64452018,-0.00122074
2.64580018,-0.00122074
2.64708018,-0.00122074
2.64836018,-0.00122074
2.64964018,-0.00122074
2.65092018,-0.00122074
2.65220018,-0.00122074
2.65348018,-0.00122074
2.65476018,-0.00122074
2.65604018,-0.00122074
2.65732018,-0.00122074
2.65860018,-0.00122074
2.65988018,-0.00122074
2.66116018,-0.00122074
2.66244018,-0.00122074
2.66372018,-0.00122074
2.66500018,-0.00122074
2.66628018,-0.00122074
2.66756018,-0.00122074
2.66884018,-0.00122074
2.67012018,-0.00122074
2.67140018,-0.00122074
2.67268018,-0.00122074
2.67396018,-0.00122074
2.67524018,-0.00122074
2.67652018,-0.00122074
2.67780018,-0.00122074
2.67908018,-0.00122074
2.68036018,-0.00122074
2.68164018,-0.00122074
2.68292018,-0.00122074
2.68420018,-0.00122074
2.68548018,-0.00122074
2.68676018,-0.00122074
2.68804018,-0.00122074
2.68932018,-0.00122074
2.69060018,-0.00122074
2.69188018,-0.00122074
2.69316018,-0.00122074
2.69444018,-0.00122074
2.69572018,-0.00122074
2.69700018,-0.00122074
2.69828018,-0.00122074
2.69956018,0.08697775
2.70084018,0.08697775
2.70212018,-0.00122074
2.70340018,-0.00122074
2.70468018,-0.00122074
2.70596018,-0.00122074
2.70724018,-0.00122074
2.70852018,-0.00122074
2.70980018,-0.00122074
2.71108018,-0.00122074
2.71236018,-0.00122074
2.71364018,-0.00122074
2.71492018,-0.00122074
2.71620018,-0.00122074
2.71748018,-0.00122074
2.71876018,-0.00122074
2.72004018,-0.00122074
2.72132018,0.08697775
2.72260018,-0.00122074
2.72388018,-0.00122074
2.72516018,-0.00122074
2.72644018,-0.00122074
2.72772018,0.08697775
2.72900018,-0.00122074
2.73028018,-0.00122074
2.73156018,-0.00122074
2.73284018,-0.00122074
2.73412018,-0.00122074
2.73540018,-0.00122074
2.73668018,-0.00122074
2.73796018,-0.00122074
2.73924018,-0.00122074
2.74052018,-0.00122074
2.74180018,-0.00122074
2.74308018,-0.00122074
2.74436018,-0.00122074
2.74564018,-0.00122074
2.74692018,-0.00122074
2.74820018,-0.00122074
2.74948018,-0.00122074
2.75076018,-0.00122074
2.75204018,-0.00122074
2.75332018,-0.00122074
2.75460018,-0.00122074
2.75588018,-0.00122074
2.75716018,-0.00122074
2.75844018,-0.00122074
2.75972018,-0.00122074
2.76100018,-0.00122074
2.76228018,-0.00122074
2.76356018,-0.00122074
2.76484018,-0.00122074
2.76612018,-0.00122074
2.76740018,-0.00122074
2.76868018,-0.00122074
2.76996018,-0.00122074
2.77124018,-0.00122074
2.77252018,-0.00122074
2.77380018,-0.00122074
2.77508018,-0.00122074
2.77636018,-0.00122074
2.77764018,-0.00122074
2.77892018,-0.00122074
2.78020018,-0.00122074
2.78148018,-0.00122074
2.78276018,-0.00122074
2.78404018,-0.00122074
2.78532018,-0.00122074
2.78660018,-0.00122074
2.78788018,-0.00122074
2.78916018,-0.00122074
2.79044018,-0.00122074
2.79172018,-0.00122074
2.79300018,-0.00122074
2.79428018,-0.00122074
2.79556018,-0.00122074
2.79684018,-0.00122074
2.79812018,-0.00122074
2.79940018,-0.00122074
2.80068018,-0.00122074
2.80196018,-0.08941923
2.80324018,-0.00122074
2.80452018,-0.00122074
2.80580018,-0.00122074
2.80708018,-0.00122074
2.80836018,-0.00122074
2.80964018,-0.00122074
2.81092018,-0.00122074
2.81220018,-0.00122074
2.81348018,-0.00122074
2.81476018,-0.00122074
2.81604018,-0.00122074
2.81732018,-0.00122074
2.81860018,-0.00122074
2.81988018,-0.00122074
2.82116018,-0.00122074
2.82244018,-0.00122074
2.82372018,-0.00122074
2.82500018,-0.00122074
2.82628018,-0.00122074
2.82756018,-0.00122074
2.82884018,-0.00122074
2.83012018,-0.00122074
2.83140018,-0.00122074
2.83268018,-0.00122074
2.83396018,-0.00122074
2.83524018,-0.00122074
2.83652018,-0.00122074
2.83780018,-0.00122074
2.83908018,-0.00122074
2.84036018,-0.00122074
2.84164018,-0.00122074
2.84292018,-0.00122074
2.84420018,-0.00122074
2.84548018,-0.00122074
2.84676018,-0.00122074
2.84804018,-0.00122074
2.84932018,-0.00122074
2.85060018,-0.00122074
2.85188018,-0.00122074
2.85316018,-0.00122074
2.85444018,-0.00122074
2.85572018,-0.00122074
2.85700018,-0.00122074
2.85828018,-0.00122074
2.85956018,-0.00122074
2.86084018,-0.00122074
2.86212018,-0.00122074
2.86340018,-0.00122074
2.86468018,-0.00122074
2.86596018,-0.00122074
2.86724018,-0.00122074
2.86852018,-0.00122074
2.86980018,-0.00122074
2.87108018,-0.00122074
2.87236018,-0.00122074
2.87364018,-0.00122074
2.87492018,-0.00122074
2.87620018,-0.00122074
2.87748018,-0.00122074
2.87876018,-0.00122074
2.88004018,-0.00122074
2.88132018,-0.00122074
2.88260018,-0.00122074
2.88388018,-0.00122074
2.88516018,-0.00122074
2.88644018,-0.00122074
2.88772018,-0.00122074
2.88900018,-0.00122074
2.89028018,-0.00122074
2.89156018,-0.00122074
2.89284018,-0.00122074
2.89412018,-0.00122074
2.89540018,-0.00122074
2.89668018,-0.00122074
2.89796018,-0.00122074
2.89924018,-0.00122074
2.90052018,-0.00122074
2.90180018,-0.00122074
2.90308018,-0.00122074
2.90436018,-0.00122074
2.90564018,-0.00122074
2.90692018,-0.00122074
2.90820018,-0.00122074
2.90948018,-0.00122074
2.91076018,-0.00122074
2.91204018,-0.00122074
2.91332018,-0.00122074
2.91460018,-0.00122074
2.91588018,-0.00122074
2.91716018,-0.00122074
2.91844018,-0.00122074
2.91972018,-0.00122074
2.92100018,-0.00122074
2.92228018,-0.00122074
2.92356018,-0.00122074
2.92484018,-0.00122074
2.92612018,-0.00122074
2.92740018,-0.00122074
2.92868018,-0.00122074
2.92996018,0.08697775
2.93124018,0.08697775
2.93252018,-0.00122074
2.93380018,-0.00122074
2.93508018,-0.00122074
2.93636018,-0.00122074
2.93764018,-0.00122074
2.93892018,-0.00122074
2.94020018,-0.00122074
2.94148018,-0.00122074
2.94276018,-0.00122074
2.94404018,-0.00122074
2.94532018,-0.00122074
2.94660018,-0.00122074
2.94788018,-0.00122074
2.94916018,-0.00122074
2.95044018,-0.00122074
2.95172018,-0.00122074
2.95300018,-0.00122074
2.95428018,-0.00122074
2.95556018,-0.00122074
2.95684018,-0.00122074
2.95812018,-0.00122074
2.95940018,-0.00122074
2.96068018,-0.00122074
2.96196018,-0.00122074
2.96324018,-0.00122074
2.96452018,-0.00122074
2.96580018,-0.00122074
2.96708018,-0.00122074
2.96836018,-0.00122074
2.96964018,-0.00122074
2.97092018,-0.00122074
2.97220018,-0.00122074
2.97348018,0.08697775
2.97476018,-0.00122074
2.97604018,-0.00122074
2.97732018,-0.00122074
2.97860018,-0.00122074
2.97988018,-0.00122074
2.98116018,-0.00122074
2.98244018,-0.00122074
2.98372018,-0.00122074
2.98500018,-0.00122074
2.98628018,-0.00122074
2.98756018,-0.00122074
2.98884018,-0.00122074
2.99012018,-0.00122074
2.99140018,-0.00122074
2.99268018,-0.00122074
2.99396018,-0.00122074
2.99524018,-0.00122074
2.99652018,-0.00122074
2.99780018,-0.00122074
2.99908018,-0.00122074
3.00036018,0.08697775
3.00164018,-0.00122074
3.00292018,-0.00122074
3.00420018,-0.00122074
3.00548018,-0.00122074
3.00676018,-0.00122074
3.00804018,-0.00122074
3.00932018,-0.00122074
3.01060018,-0.00122074
3.01188018,-0.00122074
3.01316018,-0.00122074
3.01444018,-0.00122074
3.01572018,-0.00122074
3.01700018,-0.00122074
3.01828018,-0.00122074
3.01956018,-0.00122074
3.02084018,-0.00122074
3.02212018,-0.00122074
3.02340018,-0.00122074
3.02468018,-0.00122074
3.02596018,-0.00122074
3.02724018,-0.00122074
3.02852018,-0.00122074
3.02980018,-0.00122074
3.03108018,-0.00122074
3.03236018,-0.00122074
3.03364018,-0.00122074
3.03492018,-0.00122074
3.03620018,-0.00122074
3.03748018,-0.00122074
3.03876018,-0.00122074
3.04004018,-0.00122074
3.04132018,-0.00122074
3.04260018,-0.00122074
3.04388018,-0.00122074
3.04516018,-0.00122074
3.04644018,-0.00122074
3.04772018,-0.00122074
3.04900018,-0.00122074
3.05028018,-0.00122074
3.05156018,-0.00122074
3.05284018,-0.00122074
3.05412018,-0.00122074
3.05540018,-0.00122074
3.05668018,-0.00122074
3.05796018,-0.00122074
3.05924018,-0.00122074
3.06052018,-0.00122074
3.06180018,-0.00122074
3.06308018,-0.00122074
3.06436018,-0.00122074
3.06564018,-0.00122074
3.06692018,-0.00122074
3.06820018,-0.00122074
3.06948018,-0.00122074
3.07076018,-0.00122074
3.07204018,-0.00122074
3.07332018,-0.00122074
3.07460018,-0.00122074
3.07588018,-0.00122074
3.07716018,-0.00122074
3.07844018,-0.00122074
3.07972018,-0.00122074
3.08100018,-0.00122074
3.08228018,-0.00122074
3.08356018,-0.00122074
3.08484018,-0.00122074
3.08612018,-0.00122074
3.08740018,-0.00122074
3.08868018,-0.00122074
3.08996018,-0.00122074
3.09124018,-0.00122074
3.09252018,-0.00122074
3.09380018,-0.00122074
3.09508018,-0.00122074
3.09636018,-0.00122074
3.09764018,-0.00122074
3.09892018,-0.00122074
3.10020018,-0.00122074
3.10148018,-0.00122074
3.10276018,-0.00122074
3.10404018,-0.00122074
3.10532018,-0.00122074
3.10660018,-0.00122074
3.10788018,-0.00122074
3.10916018,-0.00122074
3.11044018,-0.00122074
3.11172018,-0.00122074
3.11300018,-0.00122074
3.11428018,-0.00122074
3.11556018,-0.00122074
3.11684018,-0.00122074
3.11812018,-0.00122074
3.11940018,-0.00122074
3.12068018,-0.00122074
3.12196018,-0.00122074
3.12324018,-0.00122074
3.12452018,0.08697775
3.12580018,-0.00122074
3.12708018,-0.00122074
3.12836018,-0.00122074
3.12964018,-0.00122074
3.13092018,-0.00122074
3.13220018,-0.00122074
3.13348018,-0.00122074
3.13476018,-0.00122074
3.13604018,-0.00122074
3.13732018,-0.00122074
3.13860018,-0.00122074
3.13988018,-0.00122074
3.14116018,-0.00122074
3.14244018,-0.00122074
3.14372018,-0.00122074
3.14500018,-0.00122074
3.14628018,-0.00122074
3.14756018,-0.00122074
3.14884018,-0.00122074
3.15012018,-0.00122074
3.15140018,-0.00122074
3.15268018,-0.00122074
3.15396018,-0.00122074
3.15524018,-0.00122074
3.15652018,-0.00122074
3.15780018,-0.00122074
3.15908018,-0.00122074
3.16036018,-0.00122074
3.16164018,-0.00122074
3.16292018,-0.00122074
3.16420018,-0.00122074
3.16548018,-0.00122074
3.16676018,-0.00122074
3.16804018,-0.00122074
3.16932018,-0.00122074
3.17060018,-0.00122074
3.17188018,-0.00122074
3.17316018,-0.00122074
3.17444018,-0.00122074
3.17572018,-0.00122074
3.17700018,-0.00122074
3.17828018,-0.00122074
3.17956018,-0.00122074
3.18084018,-0.00122074
3.18212018,-0.00122074
3.18340018,-0.00122074
3.18468018,-0.00122074
3.18596018,-0.00122074
3.18724018,-0.00122074
3.18852018,-0.00122074
3.18980018,-0.00122074
3.19108018,-0.00122074
3.19236018,-0.00122074
3.19364018,-0.00122074
3.19492018,-0.00122074
3.19620018,-0.00122074
3.19748018,-0.00122074
3.19876018,-0.00122074
3.20004018,-0.00122074
3.20132018,-0.00122074
3.20260018,-0.00122074
3.20388018,-0.00122074
3.20516018,-0.00122074
3.20644018,-0.00122074
3.20772018,-0.00122074
3.20900018,-0.00122074
3.21028018,-0.00122074
3.21156018,-0.00122074
3.21284018,-0.00122074
3.21412018,-0.00122074
3.21540018,-0.00122074
3.21668018,-0.00122074
3.21796017,-0.00122074
3.21924017,-0.00122074
3.22052017,-0.00122074
3.22180017,-0.00122074
3.22308017,-0.00122074
3.22436017,-0.00122074
3.22564017,-0.00122074
3.22692017,-0.00122074
3.22820017,-0.00122074
3.22948017,-0.00122074
3.23076017,-0.00122074
3.23204017,-0.00122074
3.23332017,-0.00122074
3.23460017,-0.00122074
3.23588017,-0.00122074
3.23716017,-0.00122074
3.23844017,-0.00122074
3.23972017,-0.00122074
3.24100017,-0.00122074
3.24228017,-0.00122074
3.24356017,-0.00122074
3.24484017,-0.00122074
3.24612017,-0.00122074
3.24740017,-0.00122074
3.24868017,-0.00122074
3.24996017,-0.00122074
3.25124017,-0.00122074
3.25252017,-0.00122074
3.25380017,-0.00122074
3.25508017,-0.00122074
3.25636017,-0.00122074
3.25764017,-0.00122074
3.25892017,-0.00122074
3.26020017,-0.00122074
3.26148017,-0.00122074
3.26276017,-0.00122074
3.26404017,-0.00122074
3.26532017,-0.00122074
3.26660017,-0.00122074
3.26788017,-0.00122074
3.26916017,-0.00122074
3.27044017,-0.00122074
3.27172017,-0.00122074
3.27300017,-0.00122074
3.27428017,-0.00122074
3.27556017,0.08697775
3.27684017,-0.00122074
3.27812017,-0.00122074
3.27940017,-0.00122074
3.28068017,-0.00122074
3.28196017,0.08697775
3.28324017,-0.00122074
3.28452017,-0.00122074
3.28580017,-0.00122074
3.28708017,-0.00122074
3.28836017,-0.00122074
3.28964017,-0.00122074
3.29092017,-0.00122074
3.29220017,-0.00122074
3.29348017,-0.00122074
3.29476017,-0.00122074
3.29604017,-0.00122074
3.29732017,-0.00122074
3.29860017,-0.00122074
3.29988017,-0.00122074
3.30116017,-0.00122074
3.30244017,-0.00122074
3.30372017,-0.00122074
3.30500017,-0.00122074
3.30628017,-0.00122074
3.30756017,-0.00122074
3.30884017,-0.00122074
3.31012017,-0.00122074
3.31140017,-0.00122074
3.31268017,-0.00122074
3.31396017,-0.00122074
3.31524017,-0.00122074
3.31652017,-0.00122074
3.31780017,-0.00122074
3.31908017,-0.00122074
3.32036017,-0.00122074
3.32164017,-0.00122074
3.32292017,-0.00122074
3.32420017,-0.00122074
3.32548017,-0.00122074
3.32676017,-0.00122074
3.32804017,-0.00122074
3.32932017,-0.00122074
3.33060017,-0.00122074
3.33188017,-0.00122074
3.33316017,-0.00122074
3.33444017,-0.00122074
3.33572017,-0.00122074
3.33700017,-0.00122074
3.33828017,-0.00122074
3.33956017,-0.00122074
3.34084017,-0.00122074
3.34212017,-0.00122074
3.34340017,-0.00122074
3.34468017,-0.00122074
3.34596017,-0.00122074
3.34724017,-0.00122074
3.34852017,-0.00122074
3.34980017,-0.00122074
3.35108017,-0.00122074
3.35236017,-0.00122074
3.35364017,-0.00122074
3.35492017,-0.00122074
3.35620017,-0.00122074
3.35748017,-0.00122074
3.35876017,-0.00122074
3.36004017,-0.00122074
3.36132017,-0.00122074
3.36260017,-0.00122074
3.36388017,-0.00122074
3.36516017,-0.00122074
3.36644017,-0.00122074
3.36772017,-0.00122074
3.36900017,0.08697775
3.37028017,-0.00122074
3.37156017,-0.00122074
3.37284017,-0.00122074
3.37412017,-0.00122074
3.37540017,-0.00122074
3.37668017,-0.00122074
3.37796017,-0.00122074
3.37924017,-0.00122074
3.38052017,-0.00122074
3.38180017,-0.00122074
3.38308017,-0.00122074
3.38436017,-0.00122074
3.38564017,-0.00122074
3.38692017,-0.00122074
3.38820017,-0.00122074
3.38948017,-0.00122074
3.39076017,-0.00122074
3.39204017,0.08697775
3.39332017,-0.00122074
3.39460017,-0.00122074
3.39588017,-0.00122074
3.39716017,-0.00122074
3.39844017,-0.00122074
3.39972017,-0.00122074
3.40100017,-0.00122074
3.40228017,-0.00122074
3.40356017,-0.00122074
3.40484017,-0.00122074
3.40612017,-0.00122074
3.40740017,-0.00122074
3.40868017,-0.00122074
3.40996017,-0.00122074
3.41124017,-0.00122074
3.41252017,-0.00122074
3.41380017,-0.00122074
3.41508017,-0.00122074
3.41636017,-0.00122074
3.41764017,-0.00122074
3.41892017,-0.00122074
3.42020017,-0.00122074
3.42148017,-0.00122074
3.42276017,-0.00122074
3.42404017,-0.00122074
3.42532017,-0.00122074
3.42660017,-0.00122074
3.42788017,-0.00122074
3.42916017,-0.00122074
3.43044017,-0.00122074
3.43172017,-0.00122074
3.43300017,-0.00122074
3.43428017,-0.00122074
3.43556017,-0.00122074
3.43684017,0.08697775
3.43812017,-0.00122074
3.43940017,-0.00122074
3.44068017,-0.00122074
3.44196017,-0.00122074
3.44324017,-0.00122074
3.44452017,-0.00122074
3.44580017,-0.00122074
3.44708017,-0.00122074
3.44836017,-0.00122074
3.44964017,-0.00122074
3.45092017,-0.00122074
3.45220017,-0.00122074
3.45348017,-0.00122074
3.45476017,-0.00122074
3.45604017,-0.00122074
3.45732017,-0.00122074
3.45860017,-0.00122074
3.45988017,-0.00122074
3.46116017,-0.00122074
3.46244017,-0.00122074
3.46372017,-0.00122074
3.46500017,-0.00122074
3.46628017,-0.00122074
3.46756017,-0.00122074
3.46884017,-0.00122074
3.47012017,-0.00122074
3.47140017,-0.00122074
3.47268017,-0.00122074
3.47396017,-0.00122074
3.47524017,-0.00122074
3.47652017,-0.00122074
3.47780017,-0.00122074
3.47908017,-0.00122074
3.48036017,-0.00122074
3.48164017,-0.00122074
3.48292017,-0.00122074
3.48420017,-0.00122074
3.48548017,-0.00122074
3.48676017,-0.00122074
3.48804017,-0.00122074
3.48932017,-0.00122074
3.49060017,-0.00122074
3.49188017,-0.00122074
3.49316017,-0.00122074
3.49444017,-0.00122074
3.49572017,-0.00122074
3.49700017,-0.00122074
3.49828017,-0.00122074
3.49956017,-0.00122074
3.50084017,-0.00122074
3.50212017,-0.00122074
3.50340017,-0.00122074
3.50468017,-0.00122074
3.50596017,-0.00122074
3.50724017,-0.00122074
3.50852017,-0.00122074
3.50980017,-0.00122074
3.51108017,-0.00122074
3.51236017,-0.00122074
3.51364017,-0.00122074
3.51492017,-0.00122074
3.51620017,-0.00122074
3.51748017,-0.00122074
3.51876017,-0.00122074
3.52004017,0.08697775
3.52132017,-0.00122074
3.52260017,-0.00122074
3.52388017,-0.00122074
3.52516017,-0.00122074
3.52644017,-0.00122074
3.52772017,-0.00122074
3.52900017,-0.00122074
3.53028017,-0.00122074
3.53156017,-0.00122074
3.53284017,-0.00122074
3.53412017,-0.00122074
3.53540017,-0.00122074
3.53668017,-0.00122074
3.53796017,-0.00122074
3.53924017,-0.00122074
3.54052017,-0.00122074
3.54180017,-0.00122074
3.54308017,-0.00122074
3.54436017,-0.00122074
3.54564017,-0.00122074
3.54692017,-0.00122074
3.54820017,-0.00122074
3.54948017,-0.00122074
3.55076017,-0.00122074
3.55204017,-0.00122074
3.55332017,-0.00122074
3.55460017,-0.00122074
3.55588017,-0.00122074
3.55716017,-0.00122074
3.55844017,-0.00122074
3.55972017,-0.00122074
3.56100017,-0.00122074
3.56228017,-0.00122074
3.56356017,-0.00122074
3.56484017,-0.00122074
3.56612017,-0.00122074
3.56740017,-0.00122074
3.56868017,-0.00122074
3.56996017,-0.00122074
3.57124017,-0.00122074
3.57252017,-0.00122074
3.57380017,-0.00122074
3.57508017,-0.00122074
3.57636017,-0.00122074
3.57764017,-0.00122074
3.57892017,-0.00122074
3.58020017,-0.00122074
3.58148017,-0.00122074
3.58276017,-0.00122074
3.58404017,-0.00122074
3.58532017,-0.00122074
3.58660017,-0.00122074
3.58788017,-0.00122074
3.58916017,-0.00122074
3.59044017,-0.00122074
3.59172017,-0.00122074
3.59300017,-0.00122074
3.59428017,-0.00122074
3.59556017,-0.00122074
3.59684017,-0.00122074
3.59812017,-0.00122074
3.59940017,-0.00122074
3.60068017,-0.00122074
3.60196017,-0.00122074
3.60324017,-0.00122074
3.60452017,-0.00122074
3.60580017,-0.00122074
3.60708017,-0.00122074
3.60836017,-0.00122074
3.60964017,-0.00122074
3.61092017,-0.00122074
3.61220017,-0.00122074
3.61348017,-0.00122074
3.61476017,-0.00122074
3.61604017,-0.00122074
3.61732017,-0.00122074
3.61860017,-0.00122074
3.61988017,-0.00122074
3.62116017,-0.00122074
3.62244017,-0.00122074
3.62372017,-0.00122074
3.62500017,-0.00122074
3.62628017,-0.00122074
3.62756017,-0.00122074
3.62884017,-0.00122074
3.63012017,-0.00122074
3.63140017,-0.00122074
3.63268017,-0.00122074
3.63396017,-0.00122074
3.63524017,-0.00122074
3.63652017,0.08697775
3.63780017,-0.00122074
3.63908017,-0.00122074
3.64036017,-0.00122074
3.64164017,-0.00122074
3.64292017,-0.00122074
3.64420017,-0.00122074
3.64548017,-0.00122074
3.64676017,0.08697775
3.64804017,-0.00122074
3.64932017,-0.00122074
3.65060017,-0.00122074
3.65188017,-0.00122074
3.65316017,-0.00122074
3.65444017,-0.00122074
3.65572017,-0.00122074
3.65700017,-0.00122074
3.65828017,-0.00122074
3.65956017,-0.00122074
3.66084017,-0.00122074
3.66212017,-0.00122074
3.66340017,-0.00122074
3.66468017,-0.00122074
3.66596017,-0.00122074
3.66724017,-0.00122074
3.66852017,-0.00122074
3.66980017,-0.00122074
3.67108017,-0.00122074
3.67236017,-0.00122074
3.67364017,-0.00122074
3.67492017,-0.00122074
3.67620017,-0.00122074
3.67748017,-0.00122074
3.67876017,0.08697775
3.68004017,-0.00122074
3.68132017,-0.00122074
3.68260017,-0.00122074
3.68388017,-0.00122074
3.68516017,-0.00122074
3.68644017,0.08697775
3.68772017,-0.00122074
3.68900017,-0.00122074
3.69028017,-0.00122074
3.69156017,-0.00122074
3.69284017,-0.00122074
3.69412017,-0.00122074
3.69540017,-0.00122074
3.69668017,-0.00122074
3.69796017,-0.00122074
3.69924017,-0.00122074
3.70052017,-0.00122074
3.70180017,-0.00122074
3.70308017,-0.00122074
3.70436017,-0.00122074
3.70564017,-0.00122074
3.70692017,-0.00122074
3.70820017,-0.00122074
3.70948017,-0.00122074
3.71076017,-0.00122074
3.71204017,-0.00122074
3.71332017,-0.00122074
3.71460017,-0.00122074
3.71588017,-0.00122074
3.71716017,-0.00122074
3.71844017,-0.00122074
3.71972017,-0.00122074
3.72100017,-0.00122074
3.72228017,-0.00122074
3.72356017,-0.00122074
3.72484017,-0.00122074
3.72612017,-0.00122074
3.72740017,-0.00122074
3.72868017,-0.00122074
3.72996017,-0.00122074
3.73124017,-0.00122074
3.73252017,-0.00122074
3.73380017,-0.00122074
3.73508017,-0.00122074
3.73636017,-0.00122074
3.73764017,-0.00122074
3.73892017,-0.00122074
3.74020017,-0.00122074
3.74148017,-0.00122074
3.74276017,-0.00122074
3.74404017,-0.00122074
3.74532017,-0.00122074
3.74660017,-0.00122074
3.74788017,-0.00122074
3.74916017,-0.00122074
3.75044017,-0.00122074
3.75172017,-0.00122074
3.75300017,-0.00122074
3.75428017,-0.00122074
3.75556017,-0.00122074
3.75684017,0.08697775
3.75812017,-0.00122074
3.75940017,-0.00122074
3.76068017,-0.00122074
3.76196017,-0.00122074
3.76324017,-0.08941923
3.76452017,-0.00122074
3.76580017,-0.00122074
3.76708017,-0.00122074
3.76836017,-0.00122074
3.76964017,-0.00122074
3.77092017,-0.00122074
3.77220017,-0.00122074
3.77348017,-0.00122074
3.77476017,-0.00122074
3.77604017,-0.00122074
3.77732017,-0.00122074
3.77860017,-0.00122074
3.77988017,-0.00122074
3.78116017,-0.00122074
3.78244017,-0.00122074
3.78372017,-0.00122074
3.78500017,-0.00122074
3.78628017,-0.00122074
3.78756017,-0.00122074
3.78884017,-0.00122074
3.79012017,-0.00122074
3.79140017,-0.00122074
3.79268017,-0.00122074
3.79396017,-0.00122074
3.79524017,-0.00122074
3.79652017,-0.00122074
3.79780017,-0.00122074
3.79908017,-0.00122074
3.80036017,-0.00122074
3.80164017,-0.00122074
3.80292017,-0.00122074
3.80420017,-0.00122074
3.80548017,-0.00122074
3.80676017,-0.00122074
3.80804017,-0.00122074
3.80932017,-0.00122074
3.81060017,-0.00122074
3.81188017,-0.00122074
3.81316017,-0.00122074
3.81444017,-0.00122074
3.81572017,-0.00122074
3.81700017,-0.00122074
3.81828017,-0.00122074
3.81956017,-0.00122074
3.82084017,-0.00122074
3.82212017,-0.00122074
3.82340017,-0.00122074
3.82468017,-0.00122074
3.82596017,-0.00122074
3.82724017,-0.00122074
3.82852017,-0.00122074
3.82980017,-0.00122074
3.83108017,-0.00122074
3.83236017,-0.00122074
3.83364017,-0.00122074
3.83492017,-0.00122074
3.83620017,-0.00122074
3.83748017,-0.00122074
3.83876017,-0.00122074
3.84004017,0.08697775
3.84132017,-0.00122074
3.84260017,-0.00122074
3.84388017,-0.00122074
3.84516017,-0.00122074
3.84644017,-0.00122074
3.84772017,-0.00122074
3.84900017,-0.00122074
3.85028017,-0.00122074
3.85156017,-0.00122074
3.85284017,-0.00122074
3.85412017,-0.00122074
3.85540017,-0.00122074
3.85668017,-0.00122074
3.85796017,-0.00122074
3.85924017,-0.00122074
3.86052017,-0.00122074
3.86180017,-0.00122074
3.86308017,-0.00122074
3.86436017,-0.00122074
3.86564017,-0.00122074
3.86692017,-0.00122074
3.86820017,-0.00122074
3.86948017,-0.00122074
3.87076017,-0.00122074
3.87204017,-0.00122074
3.87332017,-0.00122074
3.87460017,-0.00122074
3.87588017,-0.00122074
3.87716017,0.08697775
3.87844017,-0.00122074
3.87972017,-0.00122074
3.88100017,-0.00122074
3.88228017,-0.00122074
3.88356017,-0.00122074
3.88484017,-0.00122074
3.88612017,-0.00122074
3.88740017,-0.00122074
3.88868017,-0.00122074
3.88996017,-0.00122074
3.89124017,-0.00122074
3.89252017,-0.00122074
3.89380017,-0.00122074
3.89508017,-0.00122074
3.89636017,-0.00122074
3.89764017,-0.00122074
3.89892017,-0.00122074
3.90020017,-0.00122074
3.90148017,-0.00122074
3.90276017,-0.00122074
3.90404017,-0.00122074
3.90532017,-0.00122074
3.90660017,-0.00122074
3.90788017,-0.00122074
3.90916017,-0.00122074
3.91044017,-0.00122074
3.91172017,-0.00122074
3.91300017,-0.00122074
3.91428017,-0.00122074
3.91556017,-0.00122074
3.91684017,-0.00122074
3.91812017,-0.00122074
3.91940017,-0.00122074
3.92068017,-0.00122074
3.92196017,-0.00122074
3.92324017,-0.00122074
3.92452017,-0.00122074
3.92580017,-0.00122074
3.92708017,-0.00122074
3.92836017,-0.00122074
3.92964017,-0.00122074
3.93092017,-0.00122074
3.93220017,-0.00122074
3.93348017,-0.00122074
3.93476017,-0.00122074
3.93604017,-0.00122074
3.93732017,-0.00122074
3.93860017,-0.00122074
3.93988017,-0.00122074
3.94116017,-0.00122074
3.94244017,-0.00122074
3.94372017,-0.00122074
3.94500017,-0.00122074
3.94628017,-0.00122074
3.94756017,-0.00122074
3.94884017,-0.00122074
3.95012017,-0.00122074
3.95140017,-0.00122074
3.95268017,-0.00122074
3.95396017,-0.00122074
3.95524017,-0.00122074
3.95652017,-0.00122074
3.95780017,-0.00122074
3.95908017,-0.00122074
3.96036017,-0.00122074
3.96164017,-0.00122074
3.96292017,-0.00122074
3.96420017,-0.00122074
3.96548017,-0.00122074
3.96676017,-0.00122074
3.96804017,-0.00122074
3.96932017,-0.00122074
3.97060017,-0.00122074
3.97188017,-0.00122074
3.97316017,-0.00122074
3.97444017,-0.00122074
3.97572017,-0.00122074
3.97700017,-0.00122074
3.97828017,-0.00122074
3.97956017,-0.00122074
3.98084017,-0.00122074
3.98212017,-0.00122074
3.98340017,-0.00122074
3.98468017,-0.00122074
3.98596017,-0.00122074
3.98724017,-0.00122074
3.98852017,-0.00122074
3.98980017,-0.00122074
3.99108017,-0.00122074
3.99236017,-0.00122074
3.99364017,-0.00122074
3.99492017,-0.00122074
3.99620017,-0.00122074
3.99748017,-0.00122074
3.99876017,-0.00122074
4.00004017,-0.00122074
4.00132017,-0.00122074
4.00260017,-0.00122074
4.00388017,-0.00122074
4.00516017,-0.00122074
4.00644017,-0.00122074
4.00772017,-0.00122074
4.00900017,-0.00122074
4.01028017,-0.00122074
4.01156017,-0.00122074
4.01284017,-0.00122074
4.01412017,-0.00122074
4.01540017,-0.00122074
4.01668017,-0.00122074
4.01796017,-0.00122074
4.01924017,-0.00122074
4.02052017,-0.00122074
4.02180017,-0.00122074
4.02308017,-0.00122074
4.02436017,-0.00122074
4.02564017,-0.00122074
4.02692017,-0.00122074
4.02820017,-0.00122074
4.02948017,-0.00122074
4.03076017,-0.00122074
4.03204017,-0.00122074
4.03332017,-0.00122074
4.03460017,-0.00122074
4.03588017,-0.00122074
4.03716017,-0.00122074
4.03844017,-0.00122074
4.03972017,-0.00122074
4.04100017,-0.00122074
4.04228017,-0.00122074
4.04356017,-0.00122074
4.04484017,-0.00122074
4.04612017,-0.00122074
4.04740017,-0.00122074
4.04868017,-0.00122074
4.04996017,-0.00122074
4.05124017,-0.00122074
4.05252017,-0.00122074
4.05380017,-0.00122074
4.05508017,-0.00122074
4.05636017,-0.00122074
4.05764017,-0.00122074
4.05892017,-0.00122074
4.06020017,-0.00122074
4.06148017,-0.00122074
4.06276017,-0.00122074
4.06404017,-0.00122074
4.06532017,-0.00122074
4.06660017,-0.00122074
4.06788017,-0.00122074
4.06916017,-0.00122074
4.07044017,-0.00122074
4.07172017,-0.00122074
4.07300017,-0.00122074
4.07428017,-0.00122074
4.07556017,-0.00122074
4.07684017,-0.00122074
4.07812017,-0.00122074
4.07940017,-0.00122074
4.08068017,-0.00122074
4.08196017,-0.00122074
4.08324017,-0.00122074
4.08452017,-0.00122074
4.08580017,-0.00122074
4.08708017,-0.00122074
4.08836017,-0.00122074
4.08964017,-0.00122074
4.09092017,-0.00122074
4.09220017,-0.00122074
4.09348017,-0.00122074
4.09476017,-0.00122074
4.09604017,-0.00122074
4.09732017,-0.00122074
4.09860017,-0.00122074
4.09988017,-0.00122074
4.10116017,-0.00122074
4.10244017,-0.00122074
4.10372017,-0.00122074
4.10500017,-0.00122074
4.10628017,-0.00122074
4.10756017,-0.00122074
4.10884017,-0.00122074
4.11012017,-0.00122074
4.11140017,-0.00122074
4.11268017,-0.00122074
4.11396017,-0.00122074
4.11524017,-0.00122074
4.11652017,-0.00122074
4.11780017,-0.00122074
4.11908017,-0.00122074
4.12036017,-0.00122074
4.12164017,-0.00122074
4.12292017,-0.00122074
4.12420017,-0.00122074
4.12548017,-0.00122074
4.12676017,-0.00122074
4.12804017,-0.00122074
4.12932017,-0.00122074
4.13060017,-0.00122074
4.13188017,-0.00122074
4.13316017,-0.00122074
4.13444017,-0.00122074
4.13572017,-0.00122074
4.13700017,-0.00122074
4.13828017,-0.00122074
4.13956017,-0.00122074
4.14084017,-0.00122074
4.14212017,-0.00122074
4.14340017,-0.00122074
4.14468017,-0.00122074
4.14596017,-0.00122074
4.14724017,-0.00122074
4.14852017,-0.00122074
4.14980017,-0.00122074
4.15108017,-0.00122074
4.15236017,-0.00122074
4.15364017,-0.00122074
4.15492017,-0.00122074
4.15620017,-0.00122074
4.15748017,-0.00122074
4.15876017,0.08697775
4.16004017,-0.00122074
4.16132017,-0.00122074
4.16260017,-0.00122074
4.16388017,-0.00122074
4.16516017,-0.00122074
4.16644017,-0.00122074
4.16772017,-0.00122074
4.16900017,-0.00122074
4.17028017,-0.00122074
4.17156017,-0.00122074
4.17284017,-0.00122074
4.17412017,-0.00122074
4.17540017,-0.00122074
4.17668017,-0.00122074
4.17796017,-0.00122074
4.17924017,-0.00122074
4.18052017,-0.00122074
4.18180017,-0.00122074
4.18308017,-0.00122074
4.18436017,-0.00122074
4.18564017,-0.00122074
4.18692017,-0.00122074
4.18820017,-0.00122074
4.18948017,-0.00122074
4.19076017,-0.00122074
4.19204017,-0.00122074
4.19332017,-0.00122074
4.19460017,-0.00122074
4.19588017,0.08697775
4.19716017,-0.00122074
4.19844017,-0.00122074
4.19972017,-0.00122074
4.20100017,0.08697775
4.20228017,-0.00122074
4.20356017,-0.00122074
4.20484017,-0.00122074
4.20612017,-0.00122074
4.20740017,-0.00122074
4.20868017,-0.00122074
4.20996017,-0.00122074
4.21124017,-0.00122074
4.21252017,-0.00122074
4.21380017,-0.00122074
4.21508017,-0.00122074
4.21636017,-0.00122074
4.21764017,-0.00122074
4.21892017,-0.00122074
4.22020017,-0.00122074
4.22148017,-0.00122074
4.22276017,-0.00122074
4.22404017,-0.00122074
4.22532017,0.08697775
4.22660017,-0.00122074
4.22788017,-0.00122074
4.22916017,-0.00122074
4.23044017,-0.00122074
4.23172017,-0.00122074
4.23300017,-0.00122074
4.23428017,-0.00122074
4.23556017,-0.00122074
4.23684017,-0.00122074
4.23812017,-0.00122074
4.23940017,-0.00122074
4.24068017,-0.00122074
4.24196017,-0.00122074
4.24324017,-0.00122074
4.24452017,-0.00122074
4.24580017,-0.00122074
4.24708017,-0.00122074
4.24836017,-0.00122074
4.24964017,-0.00122074
4.25092017,-0.00122074
4.25220017,-0.00122074
4.25348017,-0.00122074
4.25476017,-0.00122074
4.25604017,-0.00122074
4.25732017,-0.00122074
4.25860017,-0.00122074
4.25988017,0.08697775
4.26116017,-0.00122074
4.26244017,-0.00122074
4.26372017,-0.00122074
4.26500017,-0.00122074
4.26628017,-0.00122074
4.26756017,-0.00122074
4.26884017,-0.00122074
4.27012017,-0.00122074
4.27140017,-0.00122074
4.27268017,-0.00122074
4.27396017,-0.00122074
4.27524017,-0.00122074
4.27652017,-0.00122074
4.27780017,-0.00122074
4.27908017,-0.00122074
4.28036017,-0.00122074
4.28164017,-0.00122074
4.28292017,-0.00122074
4.28420017,-0.00122074
4.28548017,-0.00122074
4.28676017,-0.00122074
4.28804017,-0.00122074
4.28932017,-0.00122074
4.29060017,-0.00122074
4.29188017,-0.00122074
4.29316017,-0.00122074
4.29444017,-0.00122074
4.29572017,-0.00122074
4.29700017,-0.00122074
4.29828017,-0.00122074
4.29956017,-0.00122074
4.30084017,-0.00122074
4.30212017,-0.00122074
4.30340017,-0.00122074
4.30468017,-0.00122074
4.30596017,-0.00122074
4.30724017,-0.00122074
4.30852017,-0.00122074
4.30980017,0.08697775
4.31108017,-0.00122074
4.31236017,-0.00122074
4.31364017,-0.00122074
4.31492017,-0.00122074
4.31620017,-0.00122074
4.31748017,-0.00122074
4.31876017,-0.00122074
4.32004017,-0.00122074
4.32132017,-0.00122074
4.32260017,-0.00122074
4.32388017,-0.00122074
4.32516017,-0.00122074
4.32644017,-0.00122074
4.32772017,-0.00122074
4.32900017,-0.00122074
4.33028017,-0.00122074
4.33156017,-0.00122074
4.33284017,-0.00122074
4.33412017,-0.00122074
4.33540017,-0.00122074
4.33668017,-0.00122074
4.33796017,-0.00122074
4.33924017,-0.00122074
4.34052017,-0.00122074
4.34180017,-0.00122074
4.34308017,-0.00122074
4.34436017,-0.00122074
4.34564017,-0.00122074
4.34692017,-0.00122074
4.34820017,-0.00122074
4.34948017,-0.00122074
4.35076017,-0.00122074
4.35204017,-0.00122074
4.35332017,-0.00122074
4.35460017,-0.00122074
4.35588017,-0.00122074
4.35716017,-0.00122074
4.35844017,-0.00122074
4.35972017,-0.00122074
4.36100017,-0.00122074
4.36228017,-0.00122074
4.36356017,-0.00122074
4.36484017,-0.00122074
4.36612017,-0.00122074
4.36740017,-0.00122074
4.36868017,-0.00122074
4.36996017,-0.00122074
4.37124017,-0.00122074
4.37252017,-0.00122074
4.37380017,-0.00122074
4.37508017,0.08697775
4.37636017,-0.00122074
4.37764017,-0.00122074
4.37892017,-0.00122074
4.38020017,-0.00122074
4.38148017,-0.00122074
4.38276017,-0.00122074
4.38404017,-0.00122074
4.38532017,-0.00122074
4.38660017,-0.00122074
4.38788017,-0.00122074
4.38916017,-0.00122074
4.39044017,-0.00122074
4.39172017,-0.00122074
4.39300017,-0.00122074
4.39428017,-0.00122074
4.39556017,-0.00122074
4.39684017,-0.00122074
4.39812017,-0.00122074
4.39940017,-0.00122074
4.40068017,-0.00122074
4.40196017,-0.00122074
4.40324017,-0.00122074
4.40452017,-0.00122074
4.40580017,-0.00122074
4.40708017,-0.00122074
4.40836017,-0.00122074
4.40964017,-0.00122074
4.41092017,-0.00122074
4.41220017,-0.00122074
4.41348017,-0.00122074
4.41476017,-0.00122074
4.41604017,-0.00122074
4.41732017,-0.00122074
4.41860017,-0.00122074
4.41988017,-0.00122074
4.42116017,-0.00122074
4.42244017,-0.00122074
4.42372017,-0.00122074
4.42500017,-0.00122074
4.42628017,-0.00122074
4.42756017,-0.00122074
4.42884017,-0.00122074
4.43012017,-0.00122074
4.43140017,-0.00122074
4.43268017,-0.00122074
4.43396017,-0.00122074
4.43524017,-0.00122074
4.43652017,-0.00122074
4.43780017,0.08697775
4.43908017,-0.00122074
4.44036017,-0.00122074
4.44164017,-0.00122074
4.44292017,-0.00122074
4.44420017,-0.00122074
4.44548017,-0.00122074
4.44676017,-0.00122074
4.44804017,-0.00122074
4.44932017,-0.00122074
4.45060017,-0.00122074
4.45188017,-0.00122074
4.45316017,-0.00122074
4.45444017,-0.00122074
4.45572017,-0.00122074
4.45700017,-0.00122074
4.45828017,-0.00122074
4.45956017,-0.00122074
4.46084017,-0.00122074
4.46212017,-0.00122074
4.46340017,-0.00122074
4.46468017,-0.00122074
4.46596017,-0.00122074
4.46724017,-0.00122074
4.46852017,-0.00122074
4.46980017,-0.00122074
4.47108017,-0.00122074
4.47236017,-0.00122074
4.47364017,-0.00122074
4.47492017,-0.00122074
4.47620017,-0.00122074
4.47748017,-0.00122074
4.47876017,-0.00122074
4.48004017,-0.00122074
4.48132017,-0.00122074
4.48260017,-0.00122074
4.48388017,-0.00122074
4.48516017,0.08697775
4.48644017,-0.00122074
4.48772017,-0.00122074
4.48900017,-0.00122074
4.49028017,-0.00122074
4.49156017,-0.00122074
4.49284017,-0.00122074
4.49412017,-0.00122074
4.49540017,-0.00122074
4.49668017,-0.00122074
4.49796017,-0.00122074
4.49924017,-0.00122074
4.50052017,-0.00122074
4.50180017,-0.00122074
4.50308017,-0.00122074
4.50436017,-0.00122074
4.50564017,-0.00122074
4.50692017,-0.00122074
4.50820017,-0.00122074
4.50948017,-0.00122074
4.51076017,-0.00122074
4.51204017,-0.00122074
4.51332017,-0.00122074
4.51460017,-0.00122074
4.51588017,-0.00122074
4.51716017,-0.00122074
4.51844017,-0.00122074
4.51972017,-0.00122074
4.52100017,-0.00122074
4.52228017,-0.00122074
4.52356017,-0.00122074
4.52484017,-0.00122074
4.52612017,-0.00122074
4.52740017,-0.00122074
4.52868017,-0.00122074
4.52996017,-0.00122074
4.53124017,-0.00122074
4.53252017,-0.00122074
4.53380017,-0.00122074
4.53508017,-0.00122074
4.53636017,-0.00122074
4.53764017,-0.00122074
4.53892017,-0.00122074
4.54020017,-0.00122074
4.54148017,-0.00122074
4.54276017,-0.00122074
4.54404017,-0.00122074
4.54532017,-0.00122074
4.54660017,-0.00122074
4.54788017,-0.00122074
4.54916017,-0.00122074
4.55044017,-0.00122074
4.55172017,-0.00122074
4.55300017,-0.00122074
4.55428017,-0.00122074
4.55556017,-0.00122074
4.55684017,-0.00122074
4.55812017,-0.00122074
4.55940017,-0.00122074
4.56068017,-0.00122074
4.56196017,-0.00122074
4.56324017,-0.00122074
4.56452017,-0.00122074
4.56580017,-0.00122074
4.56708017,-0.00122074
4.56836017,-0.00122074
4.56964017,-0.00122074
4.57092017,-0.00122074
4.57220017,-0.00122074
4.57348017,-0.00122074
4.57476017,-0.00122074
4.57604017,-0.00122074
4.57732017,-0.00122074
4.57860017,-0.00122074
4.57988017,-0.00122074
4.58116017,-0.00122074
4.58244017,-0.00122074
4.58372017,-0.00122074
4.58500017,-0.00122074
4.58628017,-0.00122074
4.58756017,-0.00122074
4.58884017,-0.00122074
4.59012017,-0.00122074
4.59140017,-0.00122074
4.59268017,-0.00122074
4.59396017,-0.00122074
4.59524017,-0.00122074
4.59652017,-0.00122074
4.59780017,-0.00122074
4.59908017,-0.00122074
4.60036017,-0.00122074
4.60164017,-0.00122074
4.60292017,-0.00122074
4.60420017,-0.00122074
4.60548017,-0.00122074
4.60676017,-0.00122074
4.60804017,-0.00122074
4.60932017,-0.00122074
4.61060017,-0.00122074
4.61188017,-0.00122074
4.61316017,-0.00122074
4.61444017,-0.00122074
4.61572017,-0.00122074
4.61700017,-0.00122074
4.61828017,-0.00122074
4.61956017,-0.00122074
4.62084017,-0.00122074
4.62212017,-0.00122074
4.62340017,-0.00122074
4.62468017,-0.00122074
4.62596017,-0.00122074
4.62724017,-0.00122074
4.62852017,-0.00122074
4.62980017,-0.00122074
4.63108017,-0.00122074
4.63236017,-0.00122074
4.63364017,-0.00122074
4.63492017,-0.00122074
4.63620017,-0.00122074
4.63748017,-0.00122074
4.63876017,-0.00122074
4.64004017,-0.00122074
4.64132017,-0.00122074
4.64260017,-0.00122074
4.64388017,0.08697775
4.64516017,-0.00122074
4.64644017,-0.00122074
4.64772017,-0.00122074
4.64900017,0.08697775
4.65028017,-0.00122074
4.65156017,-0.00122074
4.65284017,-0.00122074
4.65412017,-0.00122074
4.65540017,-0.00122074
4.65668017,-0.00122074
4.65796017,-0.00122074
4.65924017,-0.00122074
4.66052017,-0.00122074
4.66180017,-0.00122074
4.66308017,-0.00122074
4.66436017,-0.00122074
4.66564017,-0.00122074
4.66692017,-0.00122074
4.66820017,-0.00122074
4.66948017,-0.00122074
4.67076017,-0.00122074
4.67204017,-0.00122074
4.67332017,-0.00122074
4.67460017,-0.00122074
4.67588017,-0.00122074
4.67716017,-0.00122074
4.67844017,-0.00122074
4.67972017,-0.00122074
4.68100017,-0.00122074
4.68228017,0.08697775
4.68356017,-0.00122074
4.68484017,-0.00122074
4.68612017,-0.00122074
4.68740017,-0.00122074
4.68868017,-0.00122074
4.68996017,-0.00122074
4.69124017,-0.00122074
4.69252017,-0.00122074
4.69380017,-0.00122074
4.69508017,-0.00122074
4.69636017,-0.00122074
4.69764017,-0.00122074
4.69892017,-0.00122074
4.70020017,-0.00122074
4.70148017,-0.00122074
4.70276017,-0.00122074
4.70404017,-0.00122074
4.70532017,-0.00122074
4.70660017,-0.00122074
4.70788017,-0.00122074
4.70916017,-0.00122074
4.71044017,-0.00122074
4.71172017,-0.00122074
4.71300017,-0.00122074
4.71428017,-0.00122074
4.71556017,-0.00122074
4.71684017,-0.00122074
4.71812017,-0.00122074
4.71940017,-0.00122074
4.72068017,-0.00122074
4.72196017,-0.00122074
4.72324017,-0.00122074
4.72452017,-0.00122074
4.72580017,-0.00122074
4.72708017,-0.00122074
4.72836017,-0.00122074
4.72964017,-0.00122074
4.73092017,-0.00122074
4.73220017,-0.00122074
4.73348017,-0.00122074
4.73476017,-0.00122074
4.73604017,-0.00122074
4.73732017,-0.00122074
4.73860017,-0.00122074
4.73988017,-0.00122074
4.74116017,-0.00122074
4.74244017,-0.00122074
4.74372017,-0.00122074
4.74500017,-0.00122074
4.74628017,-0.00122074
4.74756017,-0.00122074
4.74884017,-0.00122074
4.75012017,-0.00122074
4.75140017,-0.00122074
4.75268017,-0.00122074
4.75396017,-0.00122074
4.75524017,-0.00122074
4.75652017,-0.00122074
4.75780017,-0.00122074
4.75908017,-0.00122074
4.76036017,-0.00122074
4.76164017,-0.00122074
4.76292017,0.08697775
4.76420017,-0.00122074
4.76548017,-0.00122074
4.76676017,-0.00122074
4.76804017,-0.00122074
4.76932017,-0.00122074
4.77060017,-0.00122074
4.77188017,-0.00122074
4.77316017,-0.00122074
4.77444017,-0.00122074
4.77572017,-0.00122074
4.77700017,-0.00122074
4.77828017,-0.00122074
4.77956017,-0.00122074
4.78084017,-0.00122074
4.78212017,-0.00122074
4.78340017,-0.00122074
4.78468017,-0.00122074
4.78596017,-0.00122074
4.78724017,-0.00122074
4.78852017,-0.00122074
4.78980017,-0.00122074
4.79108017,-0.00122074
4.79236017,-0.00122074
4.79364017,-0.00122074
4.79492017,-0.00122074
4.79620017,-0.00122074
4.79748017,-0.00122074
4.79876017,-0.00122074
4.80004017,-0.00122074
4.80132017,-0.00122074
4.80260017,-0.00122074
4.80388017,-0.00122074
4.80516017,-0.00122074
4.80644017,-0.00122074
4.80772017,-0.00122074
4.80900017,-0.00122074
4.81028017,-0.00122074
4.81156017,-0.00122074
4.81284017,-0.00122074
4.81412017,-0.00122074
4.81540017,-0.00122074
4.81668017,-0.00122074
4.81796017,-0.00122074
4.81924017,-0.00122074
4.82052017,-0.00122074
4.82180017,-0.00122074
4.82308017,-0.00122074
4.82436017,-0.00122074
4.82564017,-0.00122074
4.82692017,-0.00122074
4.82820017,-0.00122074
4.82948017,-0.00122074
4.83076017,-0.00122074
4.83204017,-0.00122074
4.83332017,-0.00122074
4.83460017,-0.00122074
4.83588017,-0.00122074
4.83716017,-0.00122074
4.83844017,-0.00122074
4.83972017,-0.00122074
4.84100017,-0.00122074
4.84228017,-0.00122074
4.84356017,-0.00122074
4.84484017,-0.00122074
4.84612017,-0.00122074
4.84740017,-0.00122074
4.84868017,-0.00122074
4.84996017,-0.00122074
4.85124017,-0.00122074
4.85252017,-0.00122074
4.85380017,-0.00122074
4.85508017,-0.00122074
4.85636017,-0.00122074
4.85764017,-0.00122074
4.85892017,-0.00122074
4.86020017,-0.00122074
4.86148017,-0.00122074
4.86276016,-0.00122074
4.86404016,-0.00122074
4.86532016,-0.00122074
4.86660016,-0.00122074
4.86788016,-0.00122074
4.86916016,-0.00122074
4.87044016,-0.00122074
4.87172016,-0.00122074
4.87300016,-0.00122074
4.87428016,-0.00122074
4.87556016,-0.00122074
4.87684016,-0.00122074
4.87812016,-0.00122074
4.87940016,-0.00122074
4.88068016,-0.00122074
4.88196016,-0.00122074
4.88324016,-0.00122074
4.88452016,-0.00122074
4.88580016,-0.00122074
4.88708016,-0.00122074
4.88836016,-0.00122074
4.88964016,-0.00122074
4.89092016,-0.00122074
4.89220016,-0.00122074
4.89348016,-0.00122074
4.89476016,-0.00122074
4.89604016,-0.00122074
4.89732016,-0.00122074
4.89860016,-0.00122074
4.89988016,-0.00122074
4.90116016,-0.00122074
4.90244016,-0.00122074
4.90372016,-0.00122074
4.90500016,-0.00122074
4.90628016,-0.00122074
4.90756016,-0.00122074
4.90884016,-0.00122074
4.91012016,-0.00122074
4.91140016,-0.00122074
4.91268016,-0.00122074
4.91396016,-0.00122074
4.91524016,-0.00122074
4.91652016,-0.00122074
4.91780016,-0.00122074
4.91908016,-0.00122074
4.92036016,-0.00122074
4.92164016,-0.00122074
4.92292016,-0.00122074
4.92420016,-0.00122074
4.92548016,-0.00122074
4.92676016,-0.00122074
4.92804016,-0.00122074
4.92932016,-0.00122074
4.93060016,-0.00122074
4.93188016,-0.00122074
4.93316016,-0.00122074
4.93444016,-0.00122074
4.93572016,-0.00122074
4.93700016,-0.00122074
4.93828016,-0.00122074
4.93956016,-0.00122074
4.94084016,-0.00122074
4.94212016,-0.00122074
4.94340016,-0.00122074
4.94468016,-0.00122074
4.94596016,-0.00122074
4.94724016,-0.00122074
4.94852016,-0.00122074
4.94980016,-0.00122074
4.95108016,-0.00122074
4.95236016,-0.00122074
4.95364016,-0.00122074
4.95492016,-0.00122074
4.95620016,-0.00122074
4.95748016,-0.00122074
4.95876016,-0.00122074
4.96004016,-0.00122074
4.96132016,-0.00122074
4.96260016,-0.00122074
4.96388016,-0.00122074
4.96516016,-0.00122074
4.96644016,-0.00122074
4.96772016,-0.00122074
4.96900016,-0.00122074
4.97028016,-0.00122074
4.97156016,-0.00122074
4.97284016,-0.00122074
4.97412016,-0.00122074
4.97540016,-0.00122074
4.97668016,-0.00122074
4.97796016,-0.00122074
4.97924016,-0.00122074
4.98052016,-0.00122074
4.98180016,-0.00122074
4.98308016,-0.00122074
4.98436016,-0.00122074
4.98564016,-0.08941923
4.98692016,-0.00122074
4.98820016,-0.00122074
4.98948016,-0.00122074
4.99076016,-0.00122074
4.99204016,-0.00122074
4.99332016,-0.00122074
4.99460016,-0.00122074
4.99588016,-0.00122074
4.99716016,-0.00122074
4.99844016,-0.00122074
4.99972016,-0.00122074
5.00100016,-0.00122074
